Temperature (C)	Pressure (MPa)	Density (l, kg/m3)	Volume (l, m3/kg)	Internal Energy (l, kJ/mol)	Enthalpy (l, kJ/mol)	Entropy (l, J/mol*K)	Cv (l, J/mol*K)	Cp (l, J/mol*K)	Sound Spd. (l, m/s)	Joule-Thomson (l, K/MPa)	Viscosity (l, uPa*s)	Therm. Cond. (l, W/m*K)	Surf. Tension (l, N/m)	Density (v, kg/m3)	Volume (v, m3/kg)	Internal Energy (v, kJ/mol)	Enthalpy (v, kJ/mol)	Entropy (v, J/mol*K)	Cv (v, J/mol*K)	Cp (v, J/mol*K)	Sound Spd. (v, m/s)	Joule-Thomson (v, K/MPa)	Viscosity (v, uPa*s)	Therm. Cond. (v, W/m*K)
-77.660	0.0060534	733.85	0.0013627	1.1549e-14	0.00014048	0.0000	50.538	73.322	2011.3	-0.21958	570.61	0.61094	0.043948	0.063708	15.697	23.739	25.357	129.71	25.822	34.452	355.26	180.96	6.8379	0.015699
-76.660	0.0065556	732.70	0.0013648	0.073339	0.073492	0.37420	50.546	73.365	2005.1	-0.21914	557.81	0.61087	0.043744	0.068659	14.565	23.763	25.389	129.21	25.861	34.507	356.10	176.52	6.8632	0.015771
-75.660	0.0070929	731.56	0.0013670	0.14672	0.14689	0.74673	50.553	73.410	1998.8	-0.21869	545.43	0.61076	0.043539	0.073929	13.527	23.786	25.420	128.72	25.901	34.565	356.93	172.21	6.8886	0.015844
-74.660	0.0076674	730.41	0.0013691	0.22015	0.22033	1.1176	50.560	73.458	1992.5	-0.21822	533.43	0.61062	0.043333	0.079535	12.573	23.810	25.451	128.23	25.942	34.624	357.76	168.02	6.9142	0.015917
-73.660	0.0082811	729.26	0.0013713	0.29363	0.29382	1.4869	50.566	73.507	1986.3	-0.21773	521.81	0.61045	0.043126	0.085493	11.697	23.833	25.482	127.75	25.985	34.685	358.59	163.97	6.9400	0.015990
-72.660	0.0089360	728.11	0.0013734	0.36716	0.36737	1.8545	50.572	73.559	1980.0	-0.21722	510.55	0.61025	0.042918	0.091821	10.891	23.856	25.513	127.28	26.029	34.748	359.40	160.03	6.9659	0.016065
-71.660	0.0096344	726.95	0.0013756	0.44074	0.44096	2.2206	50.576	73.612	1973.8	-0.21670	499.63	0.61001	0.042708	0.098535	10.149	23.879	25.544	126.81	26.074	34.813	360.22	156.21	6.9919	0.016139
-70.660	0.010379	725.80	0.0013778	0.51437	0.51461	2.5851	50.580	73.666	1967.5	-0.21616	489.06	0.60975	0.042498	0.10565	9.4648	23.902	25.575	126.35	26.120	34.880	361.02	152.50	7.0180	0.016215
-69.660	0.011171	724.65	0.0013800	0.58806	0.58832	2.9482	50.582	73.722	1961.3	-0.21560	478.80	0.60945	0.042287	0.11320	8.8340	23.925	25.606	125.89	26.168	34.949	361.83	148.89	7.0443	0.016291
-68.660	0.012014	723.50	0.0013822	0.66180	0.66208	3.3097	50.584	73.780	1955.1	-0.21503	468.86	0.60912	0.042075	0.12119	8.2518	23.948	25.637	125.44	26.216	35.020	362.62	145.40	7.0707	0.016368
-67.660	0.012910	722.35	0.0013844	0.73560	0.73591	3.6697	50.584	73.839	1948.8	-0.21445	459.22	0.60876	0.041862	0.12964	7.7139	23.971	25.667	125.00	26.267	35.093	363.41	142.00	7.0973	0.016445
-66.660	0.013862	721.19	0.0013866	0.80946	0.80979	4.0283	50.583	73.898	1942.6	-0.21384	449.87	0.60837	0.041648	0.13857	7.2165	23.994	25.698	124.56	26.318	35.168	364.20	138.70	7.1240	0.016523
-65.660	0.014873	720.04	0.0013888	0.88338	0.88374	4.3854	50.581	73.959	1936.4	-0.21323	440.80	0.60795	0.041433	0.14801	6.7562	24.017	25.728	124.12	26.371	35.245	364.98	135.50	7.1507	0.016601
-64.660	0.015945	718.88	0.0013911	0.95736	0.95774	4.7411	50.577	74.020	1930.2	-0.21259	431.99	0.60749	0.041218	0.15798	6.3300	24.039	25.758	123.69	26.425	35.324	365.76	132.39	7.1776	0.016680
-63.660	0.017081	717.72	0.0013933	1.0314	1.0318	5.0954	50.572	74.083	1924.0	-0.21195	423.45	0.60701	0.041001	0.16850	5.9349	24.062	25.788	123.27	26.480	35.405	366.52	129.36	7.2047	0.016760
-62.660	0.018285	716.56	0.0013956	1.1055	1.1059	5.4483	50.566	74.145	1917.9	-0.21129	415.16	0.60649	0.040784	0.17958	5.5684	24.084	25.818	122.85	26.537	35.489	367.29	126.42	7.2318	0.016841
-61.660	0.019559	715.40	0.0013978	1.1797	1.1801	5.7998	50.558	74.209	1911.7	-0.21061	407.11	0.60595	0.040566	0.19127	5.2283	24.107	25.848	122.44	26.595	35.575	368.04	123.56	7.2590	0.016922
-60.660	0.020907	714.24	0.0014001	1.2539	1.2544	6.1499	50.549	74.273	1905.5	-0.20993	399.29	0.60537	0.040347	0.20357	4.9123	24.129	25.878	122.03	26.655	35.663	368.79	120.79	7.2864	0.017004
-59.660	0.022331	713.08	0.0014024	1.3282	1.3287	6.4987	50.538	74.337	1899.3	-0.20923	391.70	0.60477	0.040128	0.21652	4.6185	24.151	25.908	121.63	26.716	35.753	369.54	118.08	7.3138	0.017086
-58.660	0.023836	711.91	0.0014047	1.4026	1.4031	6.8462	50.525	74.402	1893.2	-0.20851	384.32	0.60413	0.039908	0.23014	4.3452	24.173	25.937	121.23	26.778	35.846	370.28	115.46	7.3414	0.017169
-57.660	0.025425	710.74	0.0014070	1.4770	1.4776	7.1924	50.511	74.466	1887.0	-0.20779	377.16	0.60346	0.039687	0.24446	4.0907	24.195	25.966	120.84	26.842	35.941	371.01	112.90	7.3690	0.017253
-56.660	0.027101	709.57	0.0014093	1.5515	1.5521	7.5372	50.496	74.531	1880.8	-0.20705	370.20	0.60276	0.039465	0.25950	3.8536	24.217	25.996	120.45	26.908	36.038	371.74	110.42	7.3968	0.017337
-55.660	0.028868	708.40	0.0014116	1.6260	1.6267	7.8808	50.479	74.597	1874.6	-0.20629	363.43	0.60204	0.039243	0.27528	3.6326	24.239	26.025	120.06	26.974	36.138	372.46	108.00	7.4246	0.017423
-54.660	0.030730	707.23	0.0014140	1.7006	1.7014	8.2231	50.460	74.662	1868.5	-0.20553	356.85	0.60128	0.039020	0.29185	3.4264	24.261	26.054	119.68	27.043	36.240	373.17	105.65	7.4525	0.017509
-53.660	0.032691	706.06	0.0014163	1.7753	1.7761	8.5641	50.440	74.727	1862.3	-0.20475	350.46	0.60050	0.038796	0.30922	3.2339	24.282	26.083	119.31	27.112	36.345	373.88	103.36	7.4806	0.017595
-52.660	0.034755	704.88	0.0014187	1.8500	1.8509	8.9038	50.419	74.793	1856.1	-0.20396	344.24	0.59968	0.038572	0.32743	3.0541	24.304	26.111	118.93	27.183	36.452	374.58	101.13	7.5087	0.017682
-51.660	0.036925	703.70	0.0014211	1.9248	1.9257	9.2423	50.396	74.858	1850.0	-0.20316	338.19	0.59884	0.038347	0.34651	2.8859	24.325	26.140	118.57	27.256	36.561	375.28	98.959	7.5369	0.017771
-50.660	0.039207	702.52	0.0014234	1.9997	2.0007	9.5796	50.371	74.924	1843.8	-0.20234	332.31	0.59797	0.038122	0.36648	2.7287	24.346	26.168	118.20	27.330	36.673	375.96	96.848	7.5651	0.017859
-49.660	0.041604	701.34	0.0014258	2.0746	2.0756	9.9156	50.345	74.989	1837.6	-0.20152	326.59	0.59707	0.037896	0.38737	2.5815	24.368	26.197	117.84	27.406	36.787	376.64	94.792	7.5935	0.017949
-48.660	0.044121	700.15	0.0014283	2.1496	2.1507	10.250	50.318	75.054	1831.4	-0.20068	321.02	0.59614	0.037670	0.40923	2.4436	24.389	26.225	117.49	27.483	36.904	377.32	92.790	7.6219	0.018039
-47.660	0.046763	698.97	0.0014307	2.2247	2.2258	10.584	50.289	75.119	1825.2	-0.19982	315.60	0.59518	0.037443	0.43208	2.3144	24.410	26.253	117.14	27.562	37.024	377.99	90.840	7.6504	0.018130
-46.660	0.049533	697.78	0.0014331	2.2998	2.3010	10.917	50.259	75.184	1819.1	-0.19896	310.33	0.59420	0.037215	0.45595	2.1932	24.431	26.281	116.79	27.642	37.146	378.65	88.941	7.6790	0.018222
-45.660	0.052437	696.58	0.0014356	2.3750	2.3763	11.248	50.228	75.249	1812.9	-0.19808	305.19	0.59319	0.036987	0.48088	2.0795	24.451	26.308	116.45	27.723	37.271	379.30	87.091	7.7076	0.018315
-44.660	0.055480	695.39	0.0014380	2.4503	2.4516	11.578	50.195	75.314	1806.7	-0.19719	300.19	0.59215	0.036759	0.50690	1.9728	24.472	26.336	116.11	27.807	37.398	379.95	85.289	7.7364	0.018408
-43.660	0.058666	694.19	0.0014405	2.5256	2.5270	11.907	50.162	75.379	1800.4	-0.19629	295.32	0.59108	0.036530	0.53405	1.8725	24.493	26.363	115.77	27.891	37.528	380.58	83.533	7.7651	0.018502
-42.660	0.062000	692.99	0.0014430	2.6009	2.6025	12.235	50.127	75.444	1794.2	-0.19537	290.58	0.58999	0.036301	0.56236	1.7782	24.513	26.391	115.44	27.977	37.660	381.22	81.822	7.7940	0.018597
-41.660	0.065489	691.79	0.0014455	2.6764	2.6780	12.561	50.091	75.509	1788.0	-0.19444	285.96	0.58887	0.036071	0.59187	1.6896	24.533	26.418	115.11	28.065	37.796	381.84	80.155	7.8229	0.018693
-40.660	0.069136	690.58	0.0014481	2.7519	2.7536	12.887	50.054	75.573	1781.8	-0.19349	281.45	0.58773	0.035841	0.62261	1.6061	24.553	26.445	114.79	28.154	37.933	382.46	78.530	7.8519	0.018790
-39.660	0.072948	689.37	0.0014506	2.8274	2.8293	13.211	50.015	75.638	1775.5	-0.19254	277.06	0.58655	0.035611	0.65463	1.5276	24.574	26.471	114.47	28.245	38.074	383.07	76.946	7.8809	0.018888
-38.660	0.076930	688.16	0.0014531	2.9031	2.9050	13.534	49.976	75.702	1769.3	-0.19157	272.78	0.58536	0.035380	0.68796	1.4536	24.593	26.498	114.15	28.337	38.217	383.67	75.402	7.9100	0.018986
-37.660	0.081087	686.95	0.0014557	2.9788	2.9808	13.856	49.936	75.767	1763.0	-0.19058	268.61	0.58414	0.035149	0.72264	1.3838	24.613	26.524	113.83	28.430	38.363	384.27	73.897	7.9392	0.019085
-36.660	0.085425	685.73	0.0014583	3.0545	3.0566	14.177	49.896	75.831	1756.7	-0.18958	264.54	0.58289	0.034918	0.75871	1.3180	24.633	26.551	113.52	28.525	38.511	384.85	72.430	7.9684	0.019185
-35.660	0.089950	684.51	0.0014609	3.1303	3.1326	14.497	49.854	75.895	1750.4	-0.18857	260.58	0.58162	0.034686	0.79622	1.2559	24.653	26.577	113.21	28.622	38.663	385.43	71.000	7.9977	0.019286
-34.660	0.094668	683.28	0.0014635	3.2062	3.2086	14.816	49.812	75.960	1744.1	-0.18754	256.71	0.58032	0.034454	0.83519	1.1973	24.672	26.602	112.91	28.720	38.817	386.00	69.605	8.0270	0.019388
-33.660	0.099585	682.06	0.0014662	3.2821	3.2846	15.134	49.768	76.025	1737.8	-0.18650	252.93	0.57900	0.034221	0.87567	1.1420	24.691	26.628	112.61	28.819	38.973	386.57	68.245	8.0564	0.019491
-32.660	0.10471	680.83	0.0014688	3.3581	3.3608	15.450	49.725	76.089	1731.5	-0.18544	249.24	0.57765	0.033989	0.91772	1.0897	24.711	26.654	112.31	28.920	39.133	387.13	66.918	8.0858	0.019595
-31.660	0.11004	679.59	0.0014715	3.4342	3.4369	15.766	49.680	76.154	1725.1	-0.18437	245.65	0.57628	0.033756	0.96136	1.0402	24.730	26.679	112.01	29.022	39.295	387.67	65.625	8.1153	0.019700
-30.660	0.11559	678.36	0.0014741	3.5103	3.5132	16.081	49.635	76.219	1718.8	-0.18328	242.14	0.57489	0.033522	1.0066	0.99340	24.749	26.704	111.72	29.126	39.460	388.21	64.363	8.1448	0.019806
-29.660	0.12136	677.12	0.0014768	3.5865	3.5895	16.394	49.590	76.285	1712.4	-0.18218	238.71	0.57348	0.033289	1.0536	0.94912	24.768	26.729	111.43	29.231	39.628	388.75	63.133	8.1744	0.019913
-28.660	0.12737	675.88	0.0014796	3.6627	3.6659	16.707	49.544	76.350	1706.0	-0.18106	235.36	0.57204	0.033055	1.1023	0.90719	24.786	26.754	111.14	29.337	39.798	389.27	61.932	8.2040	0.020020
-27.660	0.13361	674.63	0.0014823	3.7390	3.7424	17.018	49.498	76.416	1699.6	-0.17992	232.09	0.57058	0.032821	1.1528	0.86746	24.805	26.779	110.86	29.444	39.971	389.79	60.761	8.2336	0.020129
-26.660	0.14010	673.38	0.0014850	3.8154	3.8190	17.329	49.451	76.482	1693.2	-0.17877	228.90	0.56909	0.032587	1.2051	0.82981	24.823	26.803	110.57	29.553	40.148	390.30	59.618	8.2633	0.020239
-25.660	0.14683	672.13	0.0014878	3.8918	3.8956	17.638	49.405	76.548	1686.8	-0.17759	225.77	0.56759	0.032353	1.2593	0.79412	24.841	26.827	110.30	29.664	40.326	390.80	58.504	8.2931	0.020350
-24.660	0.15383	670.87	0.0014906	3.9683	3.9722	17.947	49.357	76.615	1680.3	-0.17641	222.72	0.56606	0.032119	1.3154	0.76025	24.860	26.851	110.02	29.775	40.508	391.29	57.416	8.3229	0.020462
-23.660	0.16109	669.61	0.0014934	4.0449	4.0490	18.254	49.310	76.682	1673.8	-0.17520	219.74	0.56451	0.031884	1.3734	0.72811	24.878	26.875	109.75	29.888	40.693	391.77	56.355	8.3527	0.020574
-22.660	0.16862	668.35	0.0014962	4.1215	4.1258	18.561	49.263	76.750	1667.4	-0.17397	216.83	0.56294	0.031650	1.4335	0.69760	24.896	26.899	109.47	30.002	40.880	392.25	55.319	8.3826	0.020688
-21.660	0.17643	667.08	0.0014991	4.1982	4.2027	18.866	49.215	76.818	1660.9	-0.17273	213.98	0.56136	0.031415	1.4956	0.66861	24.913	26.922	109.21	30.117	41.070	392.72	54.309	8.4125	0.020804
-20.660	0.18452	665.81	0.0015019	4.2749	4.2796	19.171	49.167	76.887	1654.3	-0.17147	211.19	0.55975	0.031180	1.5599	0.64107	24.931	26.945	108.94	30.234	41.263	393.17	53.323	8.4424	0.020920
-19.660	0.19291	664.53	0.0015048	4.3517	4.3567	19.474	49.119	76.956	1647.8	-0.17019	208.46	0.55812	0.030945	1.6263	0.61488	24.948	26.969	108.68	30.351	41.459	393.62	52.360	8.4724	0.021037
-18.660	0.20160	663.25	0.0015077	4.4286	4.4338	19.777	49.072	77.026	1641.3	-0.16889	205.79	0.55647	0.030710	1.6950	0.58997	24.966	26.991	108.42	30.470	41.658	394.07	51.421	8.5024	0.021156
-17.660	0.21060	661.97	0.0015106	4.5055	4.5110	20.079	49.024	77.097	1634.7	-0.16757	203.18	0.55480	0.030475	1.7659	0.56627	24.983	27.014	108.16	30.590	41.859	394.50	50.504	8.5325	0.021275
-16.660	0.21992	660.68	0.0015136	4.5825	4.5882	20.380	48.976	77.168	1628.1	-0.16622	200.62	0.55311	0.030239	1.8392	0.54372	25.000	27.036	107.90	30.711	42.064	394.92	49.608	8.5626	0.021396
-15.660	0.22956	659.39	0.0015165	4.6596	4.6655	20.680	48.929	77.241	1621.5	-0.16486	198.12	0.55140	0.030004	1.9148	0.52224	25.017	27.059	107.65	30.833	42.271	395.34	48.735	8.5927	0.021518
-14.660	0.23954	658.10	0.0015195	4.7367	4.7429	20.979	48.881	77.313	1614.9	-0.16348	195.67	0.54967	0.029769	1.9929	0.50177	25.034	27.080	107.39	30.957	42.482	395.75	47.881	8.6229	0.021642
-13.660	0.24985	656.80	0.0015225	4.8139	4.8204	21.277	48.834	77.387	1608.2	-0.16207	193.27	0.54794	0.029533	2.0735	0.48227	25.050	27.102	107.14	31.081	42.695	396.15	47.048	8.6531	0.021766
-12.660	0.26051	655.50	0.0015256	4.8912	4.8980	21.574	48.787	77.462	1601.6	-0.16064	190.92	0.54618	0.029298	2.1567	0.46368	25.067	27.124	106.90	31.206	42.911	396.54	46.235	8.6833	0.021892
-11.660	0.27154	654.19	0.0015286	4.9685	4.9756	21.870	48.740	77.538	1594.9	-0.15919	188.62	0.54441	0.029062	2.2424	0.44595	25.083	27.145	106.65	31.333	43.130	396.92	45.441	8.7136	0.022019
-10.660	0.28292	652.88	0.0015317	5.0460	5.0533	22.166	48.694	77.614	1588.2	-0.15771	186.36	0.54262	0.028827	2.3309	0.42903	25.099	27.166	106.41	31.460	43.353	397.29	44.666	8.7439	0.022147
-9.6600	0.29468	651.57	0.0015348	5.1234	5.1311	22.461	48.647	77.692	1581.5	-0.15621	184.14	0.54082	0.028592	2.4220	0.41288	25.115	27.187	106.17	31.589	43.578	397.65	43.908	8.7743	0.022277
-8.6600	0.30682	650.25	0.0015379	5.2010	5.2090	22.754	48.601	77.771	1574.7	-0.15469	181.98	0.53900	0.028356	2.5160	0.39746	25.131	27.207	105.93	31.718	43.806	398.01	43.169	8.8047	0.022408
-7.6600	0.31935	648.92	0.0015410	5.2786	5.2870	23.047	48.556	77.851	1568.0	-0.15314	179.85	0.53716	0.028121	2.6128	0.38273	25.146	27.228	105.69	31.848	44.038	398.35	42.446	8.8351	0.022540
-6.6600	0.33228	647.60	0.0015442	5.3563	5.3650	23.339	48.510	77.932	1561.2	-0.15156	177.76	0.53530	0.027885	2.7125	0.36866	25.162	27.248	105.45	31.980	44.272	398.69	41.741	8.8655	0.022674
-5.6600	0.34562	646.26	0.0015474	5.4340	5.4431	23.631	48.466	78.014	1554.4	-0.14996	175.72	0.53343	0.027650	2.8152	0.35521	25.177	27.268	105.22	32.112	44.510	399.02	41.051	8.8960	0.022809
-4.6600	0.35938	644.93	0.0015506	5.5119	5.5214	23.921	48.421	78.098	1547.6	-0.14833	173.71	0.53155	0.027415	2.9210	0.34235	25.192	27.287	104.99	32.245	44.751	399.34	40.378	8.9266	0.022945
-3.6600	0.37356	643.59	0.0015538	5.5898	5.5997	24.211	48.377	78.183	1540.8	-0.14668	171.74	0.52965	0.027180	3.0299	0.33005	25.207	27.307	104.76	32.379	44.995	399.65	39.720	8.9571	0.023083
-2.6600	0.38818	642.24	0.0015570	5.6678	5.6781	24.500	48.334	78.269	1533.9	-0.14499	169.80	0.52773	0.026945	3.1419	0.31827	25.222	27.326	104.53	32.513	45.243	399.95	39.077	8.9877	0.023223
-1.6600	0.40324	640.89	0.0015603	5.7458	5.7565	24.788	48.290	78.357	1527.0	-0.14328	167.90	0.52580	0.026710	3.2572	0.30701	25.237	27.345	104.31	32.649	45.493	400.24	38.449	9.0184	0.023363
-0.66000	0.41876	639.54	0.0015636	5.8240	5.8351	25.075	48.248	78.446	1520.2	-0.14154	166.04	0.52386	0.026475	3.3759	0.29622	25.251	27.364	104.08	32.786	45.747	400.52	37.835	9.0491	0.023506
0.34000	0.43473	638.18	0.0015670	5.9022	5.9138	25.362	48.206	78.537	1513.2	-0.13976	164.21	0.52190	0.026240	3.4979	0.28589	25.265	27.382	103.86	32.923	46.005	400.79	37.235	9.0798	0.023650
1.3400	0.45118	636.81	0.0015703	5.9805	5.9925	25.648	48.164	78.629	1506.3	-0.13796	162.41	0.51993	0.026006	3.6233	0.27599	25.279	27.400	103.64	33.061	46.266	401.06	36.649	9.1106	0.023795
2.3400	0.46811	635.44	0.0015737	6.0589	6.0714	25.933	48.123	78.723	1499.4	-0.13612	160.64	0.51794	0.025771	3.7524	0.26650	25.293	27.418	103.42	33.200	46.530	401.31	36.076	9.1414	0.023942
3.3400	0.48553	634.07	0.0015771	6.1373	6.1504	26.217	48.082	78.819	1492.4	-0.13426	158.90	0.51595	0.025537	3.8850	0.25740	25.307	27.435	103.20	33.340	46.798	401.56	35.515	9.1722	0.024091
4.3400	0.50345	632.69	0.0015806	6.2159	6.2294	26.501	48.042	78.916	1485.4	-0.13236	157.20	0.51394	0.025303	4.0212	0.24868	25.321	27.453	102.98	33.480	47.070	401.79	34.967	9.2031	0.024241
5.3400	0.52188	631.30	0.0015840	6.2945	6.3086	26.784	48.003	79.015	1478.4	-0.13042	155.52	0.51191	0.025069	4.1613	0.24031	25.334	27.470	102.77	33.621	47.345	402.02	34.432	9.2341	0.024393
6.3400	0.54084	629.91	0.0015875	6.3732	6.3878	27.066	47.964	79.116	1471.4	-0.12846	153.86	0.50988	0.024835	4.3052	0.23228	25.347	27.486	102.56	33.763	47.624	402.24	33.908	9.2651	0.024547
7.3400	0.56032	628.52	0.0015910	6.4520	6.4672	27.348	47.926	79.219	1464.4	-0.12645	152.24	0.50783	0.024601	4.4530	0.22457	25.360	27.503	102.34	33.906	47.907	402.44	33.396	9.2961	0.024702
8.3400	0.58034	627.12	0.0015946	6.5309	6.5467	27.629	47.888	79.323	1457.3	-0.12441	150.64	0.50577	0.024368	4.6047	0.21717	25.373	27.519	102.13	34.049	48.193	402.64	32.895	9.3272	0.024859
9.3400	0.60091	625.71	0.0015982	6.6099	6.6262	27.909	47.851	79.430	1450.2	-0.12233	149.07	0.50370	0.024135	4.7606	0.21006	25.385	27.535	101.92	34.194	48.484	402.83	32.405	9.3584	0.025018
10.340	0.62204	624.30	0.0016018	6.6890	6.7059	28.188	47.814	79.539	1443.1	-0.12022	147.52	0.50162	0.023901	4.9206	0.20323	25.398	27.551	101.72	34.338	48.778	403.01	31.925	9.3896	0.025178
11.340	0.64374	622.89	0.0016054	6.7681	6.7857	28.467	47.778	79.650	1436.0	-0.11806	146.00	0.49953	0.023669	5.0849	0.19666	25.410	27.566	101.51	34.484	49.077	403.17	31.456	9.4209	0.025340
12.340	0.66602	621.47	0.0016091	6.8474	6.8656	28.746	47.743	79.763	1428.9	-0.11587	144.50	0.49742	0.023436	5.2535	0.19035	25.422	27.581	101.31	34.630	49.380	403.33	30.997	9.4522	0.025505
13.340	0.68889	620.04	0.0016128	6.9268	6.9457	29.023	47.708	79.878	1421.7	-0.11364	143.02	0.49531	0.023204	5.4264	0.18428	25.433	27.595	101.10	34.778	49.687	403.48	30.548	9.4836	0.025671
14.340	0.71236	618.61	0.0016165	7.0062	7.0258	29.300	47.674	79.995	1414.5	-0.11136	141.57	0.49319	0.022971	5.6039	0.17845	25.445	27.610	100.90	34.925	49.999	403.62	30.109	9.5150	0.025839
15.340	0.73644	617.17	0.0016203	7.0858	7.1061	29.577	47.640	80.115	1407.4	-0.10904	140.13	0.49106	0.022739	5.7860	0.17283	25.456	27.624	100.70	35.074	50.315	403.75	29.678	9.5465	0.026009
16.340	0.76115	615.72	0.0016241	7.1654	7.1865	29.853	47.607	80.238	1400.1	-0.10667	138.72	0.48891	0.022508	5.9728	0.16742	25.467	27.638	100.50	35.223	50.636	403.87	29.257	9.5781	0.026181
17.340	0.78648	614.27	0.0016279	7.2452	7.2670	30.128	47.575	80.362	1392.9	-0.10427	137.33	0.48676	0.022276	6.1644	0.16222	25.478	27.651	100.30	35.373	50.961	403.97	28.845	9.6098	0.026355
18.340	0.81246	612.82	0.0016318	7.3251	7.3476	30.402	47.543	80.490	1385.7	-0.10181	135.96	0.48460	0.022045	6.3608	0.15721	25.489	27.664	100.10	35.523	51.291	404.07	28.441	9.6415	0.026530
19.340	0.83910	611.36	0.0016357	7.4050	7.4284	30.677	47.512	80.619	1378.4	-0.099309	134.60	0.48243	0.021814	6.5622	0.15239	25.499	27.677	99.904	35.675	51.626	404.16	28.046	9.6733	0.026709
20.340	0.86640	609.89	0.0016396	7.4851	7.5093	30.950	47.482	80.752	1371.1	-0.096758	133.27	0.48025	0.021584	6.7687	0.14774	25.509	27.689	99.709	35.827	51.966	404.24	27.659	9.7052	0.026889
21.340	0.89437	608.41	0.0016436	7.5653	7.5903	31.223	47.452	80.887	1363.8	-0.094157	131.95	0.47807	0.021354	6.9804	0.14326	25.519	27.701	99.514	35.980	52.312	404.30	27.279	9.7372	0.027071
22.340	0.92303	606.93	0.0016476	7.6456	7.6715	31.495	47.423	81.025	1356.5	-0.091506	130.65	0.47587	0.021124	7.1973	0.13894	25.529	27.713	99.320	36.133	52.662	404.36	26.908	9.7692	0.027256
23.340	0.95239	605.44	0.0016517	7.7260	7.7528	31.767	47.394	81.166	1349.1	-0.088802	129.37	0.47367	0.020894	7.4197	0.13478	25.538	27.724	99.128	36.287	53.018	404.41	26.544	9.8014	0.027442
24.340	0.98246	603.95	0.0016558	7.8066	7.8343	32.039	47.366	81.310	1341.8	-0.086044	128.11	0.47146	0.020665	7.6475	0.13076	25.548	27.735	98.936	36.442	53.380	404.44	26.187	9.8336	0.027631
