Temperature (C)	Pressure (MPa)	Density (l, kg/m3)	Volume (l, m3/kg)	Internal Energy (l, kJ/mol)	Enthalpy (l, kJ/mol)	Entropy (l, J/mol*K)	Cv (l, J/mol*K)	Cp (l, J/mol*K)	Sound Spd. (l, m/s)	Joule-Thomson (l, K/MPa)	Viscosity (l, uPa*s)	Therm. Cond. (l, W/m*K)	Surf. Tension (l, N/m)	Density (v, kg/m3)	Volume (v, m3/kg)	Internal Energy (v, kJ/mol)	Enthalpy (v, kJ/mol)	Entropy (v, J/mol*K)	Cv (v, J/mol*K)	Cp (v, J/mol*K)	Sound Spd. (v, m/s)	Joule-Thomson (v, K/MPa)	Viscosity (v, uPa*s)	Therm. Cond. (v, W/m*K)
-100.00	0.0020102	1571.3	0.00063641	7.8431	7.8432	43.668	57.981	91.758	1127.5	-0.42569	896.02	0.14312	0.028240	0.12098	8.2660	29.602	31.039	177.63	34.587	42.993	143.57	125.17	7.2418	0.0044564
-99.000	0.0022053	1568.7	0.00063748	7.9348	7.9349	44.196	57.936	91.756	1122.7	-0.42500	876.86	0.14258	0.028066	0.13198	7.5771	29.636	31.081	177.11	34.702	43.115	143.93	122.84	7.2838	0.0044942
-98.000	0.0024163	1566.0	0.00063855	8.0266	8.0267	44.722	57.892	91.753	1118.0	-0.42429	858.35	0.14204	0.027892	0.14380	6.9540	29.670	31.123	176.59	34.819	43.239	144.28	120.57	7.3258	0.0045322
-97.000	0.0026443	1563.4	0.00063963	8.1183	8.1184	45.244	57.847	91.751	1113.2	-0.42357	840.47	0.14150	0.027718	0.15650	6.3897	29.704	31.165	176.08	34.935	43.363	144.64	118.35	7.3679	0.0045704
-96.000	0.0028903	1560.8	0.00064071	8.2100	8.2102	45.763	57.803	91.750	1108.5	-0.42283	823.18	0.14097	0.027544	0.17013	5.8779	29.738	31.207	175.58	35.052	43.488	144.99	116.19	7.4099	0.0046088
-95.000	0.0031555	1558.1	0.00064180	8.3018	8.3020	46.280	57.759	91.750	1103.7	-0.42208	806.45	0.14043	0.027371	0.18473	5.4132	29.773	31.250	175.09	35.170	43.614	145.34	114.07	7.4520	0.0046474
-94.000	0.0034412	1555.5	0.00064289	8.3935	8.3937	46.793	57.716	91.750	1099.0	-0.42130	790.27	0.13990	0.027198	0.20037	4.9908	29.807	31.292	174.61	35.288	43.740	145.68	112.00	7.4940	0.0046862
-93.000	0.0037484	1552.8	0.00064398	8.4853	8.4855	47.304	57.672	91.750	1094.3	-0.42051	774.61	0.13937	0.027024	0.21709	4.6064	29.841	31.334	174.14	35.406	43.868	146.03	109.98	7.5361	0.0047251
-92.000	0.0040785	1550.2	0.00064508	8.5770	8.5773	47.812	57.630	91.752	1089.5	-0.41969	759.44	0.13884	0.026851	0.23496	4.2561	29.876	31.377	173.67	35.525	43.996	146.37	108.01	7.5781	0.0047643
-91.000	0.0044329	1547.5	0.00064619	8.6688	8.6690	48.317	57.587	91.755	1084.8	-0.41886	744.75	0.13831	0.026678	0.25403	3.9366	29.910	31.419	173.21	35.644	44.126	146.71	106.08	7.6201	0.0048036
-90.000	0.0048130	1544.9	0.00064730	8.7605	8.7608	48.819	57.546	91.758	1080.1	-0.41801	730.51	0.13778	0.026506	0.27437	3.6448	29.945	31.461	172.77	35.763	44.256	147.05	104.20	7.6621	0.0048432
-89.000	0.0052202	1542.2	0.00064841	8.8523	8.8526	49.319	57.504	91.763	1075.4	-0.41713	716.71	0.13725	0.026333	0.29603	3.3780	29.979	31.504	172.32	35.883	44.387	147.38	102.36	7.7042	0.0048829
-88.000	0.0056559	1539.6	0.00064953	8.9440	8.9444	49.816	57.463	91.768	1070.7	-0.41624	703.33	0.13673	0.026161	0.31910	3.1338	30.014	31.546	171.89	36.004	44.519	147.72	100.56	7.7462	0.0049228
-87.000	0.0061219	1536.9	0.00065065	9.0358	9.0361	50.310	57.423	91.775	1066.0	-0.41532	690.34	0.13621	0.025989	0.34362	2.9102	30.048	31.589	171.46	36.125	44.653	148.05	98.803	7.7882	0.0049629
-86.000	0.0066196	1534.3	0.00065178	9.1276	9.1279	50.802	57.384	91.783	1061.3	-0.41437	677.74	0.13569	0.025817	0.36968	2.7050	30.083	31.631	171.05	36.246	44.787	148.37	97.087	7.8301	0.0050032
-85.000	0.0071508	1531.6	0.00065292	9.2193	9.2197	51.291	57.344	91.793	1056.6	-0.41341	665.50	0.13517	0.025645	0.39734	2.5167	30.118	31.674	170.63	36.368	44.922	148.70	95.410	7.8721	0.0050437
-84.000	0.0077173	1528.9	0.00065406	9.3111	9.3116	51.777	57.306	91.803	1051.9	-0.41242	653.62	0.13465	0.025473	0.42669	2.3436	30.153	31.717	170.23	36.491	45.059	149.02	93.771	7.9140	0.0050844
-83.000	0.0083208	1526.2	0.00065520	9.4029	9.4034	52.261	57.268	91.816	1047.2	-0.41140	642.08	0.13413	0.025301	0.45778	2.1845	30.188	31.759	169.83	36.613	45.196	149.35	92.169	7.9560	0.0051253
-82.000	0.0089632	1523.6	0.00065635	9.4947	9.4952	52.743	57.232	91.829	1042.5	-0.41036	630.86	0.13361	0.025130	0.49071	2.0379	30.222	31.802	169.44	36.737	45.335	149.66	90.604	7.9979	0.0051664
-81.000	0.0096464	1520.9	0.00065751	9.5866	9.5871	53.222	57.195	91.845	1037.8	-0.40929	619.96	0.13310	0.024959	0.52555	1.9028	30.257	31.844	169.06	36.861	45.475	149.98	89.075	8.0398	0.0052077
-80.000	0.010372	1518.2	0.00065867	9.6784	9.6790	53.699	57.160	91.861	1033.1	-0.40819	609.36	0.13259	0.024788	0.56238	1.7782	30.292	31.887	168.68	36.986	45.616	150.29	87.580	8.0816	0.0052491
-79.000	0.011143	1515.5	0.00065984	9.7703	9.7709	54.173	57.125	91.880	1028.5	-0.40707	599.05	0.13207	0.024617	0.60129	1.6631	30.327	31.930	168.31	37.111	45.759	150.61	86.119	8.1235	0.0052908
-78.000	0.011961	1512.8	0.00066101	9.8621	9.8628	54.645	57.092	91.900	1023.8	-0.40591	589.01	0.13156	0.024446	0.64237	1.5567	30.362	31.972	167.94	37.236	45.902	150.91	84.691	8.1653	0.0053327
-77.000	0.012828	1510.1	0.00066219	9.9540	9.9548	55.115	57.059	91.922	1019.1	-0.40473	579.24	0.13105	0.024276	0.68570	1.4584	30.397	32.015	167.58	37.363	46.047	151.22	83.295	8.2071	0.0053748
-76.000	0.013746	1507.4	0.00066338	10.046	10.047	55.582	57.027	91.946	1014.4	-0.40352	569.74	0.13055	0.024105	0.73138	1.3673	30.432	32.058	167.23	37.490	46.193	151.52	81.930	8.2489	0.0054171
-75.000	0.014718	1504.7	0.00066457	10.138	10.139	56.047	56.996	91.971	1009.8	-0.40228	560.48	0.13004	0.023935	0.77949	1.2829	30.467	32.100	166.88	37.617	46.341	151.82	80.596	8.2906	0.0054595
-74.000	0.015746	1502.0	0.00066576	10.230	10.231	56.510	56.966	91.999	1005.1	-0.40100	551.45	0.12953	0.023765	0.83013	1.2046	30.503	32.143	166.54	37.745	46.490	152.12	79.292	8.3323	0.0055022
-73.000	0.016833	1499.3	0.00066697	10.322	10.323	56.971	56.937	92.028	1000.4	-0.39970	542.66	0.12903	0.023596	0.88340	1.1320	30.538	32.185	166.20	37.874	46.640	152.41	78.016	8.3740	0.0055451
-72.000	0.017981	1496.6	0.00066818	10.414	10.415	57.430	56.909	92.060	995.77	-0.39836	534.10	0.12853	0.023426	0.93939	1.0645	30.573	32.228	165.87	38.003	46.792	152.71	76.770	8.4157	0.0055882
-71.000	0.019192	1493.9	0.00066939	10.506	10.507	57.886	56.882	92.093	991.10	-0.39699	525.74	0.12802	0.023257	0.99822	1.0018	30.608	32.270	165.55	38.133	46.946	152.99	75.550	8.4573	0.0056315
-70.000	0.020469	1491.2	0.00067061	10.598	10.599	58.341	56.856	92.129	986.44	-0.39559	517.59	0.12752	0.023087	1.0600	0.94342	30.643	32.313	165.23	38.264	47.101	153.28	74.358	8.4989	0.0056750
-69.000	0.021815	1488.4	0.00067184	10.690	10.691	58.793	56.831	92.167	981.78	-0.39416	509.65	0.12702	0.022918	1.1248	0.88908	30.678	32.355	164.91	38.395	47.257	153.56	73.192	8.5404	0.0057187
-68.000	0.023233	1485.7	0.00067308	10.782	10.784	59.243	56.807	92.206	977.13	-0.39268	501.89	0.12653	0.022749	1.1927	0.83844	30.714	32.398	164.60	38.527	47.415	153.84	72.052	8.5820	0.0057627
-67.000	0.024725	1483.0	0.00067432	10.874	10.876	59.692	56.784	92.248	972.47	-0.39118	494.32	0.12603	0.022581	1.2639	0.79121	30.749	32.440	164.30	38.660	47.574	154.12	70.937	8.6235	0.0058068
-66.000	0.026294	1480.2	0.00067557	10.967	10.968	60.138	56.762	92.293	967.81	-0.38964	486.93	0.12553	0.022412	1.3384	0.74714	30.784	32.483	164.00	38.793	47.735	154.39	69.846	8.6649	0.0058512
-65.000	0.027944	1477.5	0.00067682	11.059	11.061	60.582	56.742	92.339	963.16	-0.38806	479.72	0.12504	0.022244	1.4165	0.70599	30.819	32.525	163.70	38.927	47.898	154.66	68.779	8.7063	0.0058957
-64.000	0.029677	1474.7	0.00067809	11.151	11.153	61.025	56.723	92.388	958.50	-0.38645	472.67	0.12454	0.022076	1.4981	0.66752	30.854	32.567	163.41	39.062	48.063	154.93	67.735	8.7477	0.0059405
-63.000	0.031496	1472.0	0.00067936	11.244	11.245	61.465	56.704	92.439	953.85	-0.38480	465.78	0.12405	0.021908	1.5834	0.63155	30.890	32.610	163.13	39.197	48.229	155.19	66.714	8.7891	0.0059855
-62.000	0.033405	1469.2	0.00068064	11.336	11.338	61.904	56.687	92.492	949.20	-0.38311	459.05	0.12356	0.021740	1.6726	0.59788	30.925	32.652	162.85	39.334	48.397	155.45	65.715	8.8304	0.0060307
-61.000	0.035407	1466.4	0.00068192	11.429	11.431	62.341	56.672	92.548	944.54	-0.38138	452.47	0.12307	0.021573	1.7657	0.56635	30.960	32.694	162.57	39.471	48.566	155.71	64.737	8.8716	0.0060761
-60.000	0.037505	1463.7	0.00068321	11.521	11.523	62.776	56.657	92.606	939.89	-0.37962	446.03	0.12258	0.021405	1.8629	0.53680	30.995	32.736	162.30	39.608	48.738	155.96	63.781	8.9129	0.0061217
-59.000	0.039702	1460.9	0.00068451	11.614	11.616	63.210	56.644	92.666	935.24	-0.37782	439.74	0.12209	0.021238	1.9643	0.50909	31.030	32.778	162.03	39.747	48.911	156.21	62.845	8.9541	0.0061676
-58.000	0.042002	1458.1	0.00068582	11.706	11.709	63.641	56.632	92.729	930.59	-0.37597	433.59	0.12160	0.021071	2.0700	0.48309	31.066	32.820	161.77	39.886	49.086	156.46	61.928	8.9952	0.0062137
-57.000	0.044408	1455.3	0.00068714	11.799	11.802	64.071	56.621	92.794	925.94	-0.37409	427.57	0.12112	0.020905	2.1802	0.45867	31.101	32.862	161.51	40.026	49.264	156.70	61.032	9.0363	0.0062600
-56.000	0.046924	1452.5	0.00068846	11.892	11.894	64.499	56.611	92.862	921.29	-0.37216	421.67	0.12063	0.020738	2.2950	0.43573	31.136	32.904	161.25	40.167	49.443	156.94	60.154	9.0774	0.0063065
-55.000	0.049553	1449.7	0.00068979	11.985	11.987	64.926	56.603	92.932	916.64	-0.37019	415.90	0.12015	0.020572	2.4145	0.41416	31.171	32.946	161.00	40.308	49.624	157.18	59.295	9.1185	0.0063533
-54.000	0.052299	1446.9	0.00069113	12.077	12.081	65.351	56.595	93.005	911.99	-0.36818	410.25	0.11966	0.020406	2.5389	0.39387	31.206	32.987	160.75	40.451	49.807	157.41	58.454	9.1595	0.0064002
-53.000	0.055166	1444.1	0.00069248	12.170	12.174	65.774	56.590	93.080	907.34	-0.36613	404.72	0.11918	0.020240	2.6683	0.37478	31.241	33.029	160.51	40.594	49.992	157.64	57.630	9.2004	0.0064475
-52.000	0.058158	1441.3	0.00069383	12.263	12.267	66.195	56.585	93.158	902.69	-0.36404	399.30	0.11870	0.020074	2.8028	0.35679	31.276	33.070	160.27	40.738	50.179	157.87	56.824	9.2414	0.0064949
-51.000	0.061278	1438.4	0.00069520	12.357	12.360	66.616	56.582	93.239	898.04	-0.36190	394.00	0.11822	0.019909	2.9426	0.33983	31.311	33.112	160.03	40.883	50.368	158.09	56.034	9.2822	0.0065426
-50.000	0.064530	1435.6	0.00069657	12.450	12.454	67.034	56.580	93.322	893.39	-0.35971	388.79	0.11774	0.019744	3.0879	0.32385	31.346	33.153	159.79	41.029	50.559	158.30	55.261	9.3231	0.0065905
-49.000	0.067919	1432.8	0.00069796	12.543	12.547	67.451	56.579	93.407	888.74	-0.35749	383.69	0.11726	0.019579	3.2387	0.30876	31.381	33.194	159.57	41.175	50.753	158.52	54.503	9.3639	0.0066386
-48.000	0.071447	1429.9	0.00069935	12.636	12.641	67.867	56.579	93.495	884.09	-0.35521	378.69	0.11678	0.019414	3.3953	0.29453	31.416	33.236	159.34	41.322	50.949	158.73	53.762	9.4047	0.0066870
-47.000	0.075121	1427.0	0.00070075	12.730	12.734	68.281	56.581	93.586	879.43	-0.35289	373.79	0.11630	0.019249	3.5578	0.28108	31.451	33.277	159.12	41.471	51.147	158.93	53.035	9.4455	0.0067356
-46.000	0.078942	1424.2	0.00070216	12.823	12.828	68.694	56.584	93.680	874.78	-0.35052	368.98	0.11583	0.019085	3.7262	0.26837	31.486	33.317	158.90	41.620	51.347	159.13	52.323	9.4862	0.0067844
-45.000	0.082917	1421.3	0.00070358	12.917	12.922	69.105	56.588	93.776	870.13	-0.34811	364.27	0.11535	0.018921	3.9009	0.25635	31.520	33.358	158.68	41.770	51.550	159.33	51.626	9.5268	0.0068335
-44.000	0.087048	1418.4	0.00070501	13.011	13.016	69.515	56.594	93.874	865.48	-0.34564	359.64	0.11488	0.018757	4.0820	0.24498	31.555	33.399	158.47	41.920	51.755	159.53	50.943	9.5675	0.0068829
-43.000	0.091341	1415.5	0.00070645	13.104	13.110	69.923	56.601	93.976	860.82	-0.34313	355.10	0.11440	0.018593	4.2696	0.23422	31.590	33.440	158.26	42.072	51.963	159.71	50.273	9.6081	0.0069325
-42.000	0.095799	1412.6	0.00070790	13.198	13.204	70.330	56.609	94.080	856.17	-0.34057	350.64	0.11393	0.018430	4.4638	0.22402	31.624	33.480	158.05	42.225	52.172	159.90	49.617	9.6487	0.0069823
-41.000	0.10043	1409.7	0.00070936	13.292	13.298	70.736	56.619	94.186	851.52	-0.33796	346.26	0.11346	0.018266	4.6649	0.21437	31.659	33.520	157.84	42.378	52.385	160.08	48.974	9.6893	0.0070324
-40.000	0.10523	1406.8	0.00071083	13.386	13.393	71.140	56.629	94.296	846.86	-0.33529	341.97	0.11299	0.018103	4.8730	0.20521	31.693	33.561	157.64	42.532	52.600	160.26	48.344	9.7298	0.0070827
-39.000	0.11021	1403.9	0.00071231	13.481	13.487	71.544	56.641	94.408	842.21	-0.33258	337.75	0.11251	0.017941	5.0883	0.19653	31.728	33.601	157.44	42.688	52.817	160.43	47.727	9.7703	0.0071333
-38.000	0.11538	1401.0	0.00071380	13.575	13.582	71.945	56.655	94.523	837.55	-0.32981	333.60	0.11204	0.017778	5.3109	0.18829	31.762	33.641	157.25	42.844	53.037	160.60	47.121	9.8108	0.0071841
-37.000	0.12073	1398.0	0.00071530	13.669	13.677	72.346	56.669	94.641	832.89	-0.32699	329.53	0.11157	0.017616	5.5411	0.18047	31.797	33.681	157.05	43.001	53.260	160.76	46.528	9.8513	0.0072352
-36.000	0.12628	1395.1	0.00071681	13.764	13.772	72.746	56.685	94.761	828.24	-0.32411	325.53	0.11111	0.017454	5.7790	0.17304	31.831	33.720	156.86	43.159	53.486	160.92	45.946	9.8917	0.0072866
-35.000	0.13203	1392.1	0.00071834	13.858	13.867	73.144	56.702	94.884	823.58	-0.32118	321.59	0.11064	0.017292	6.0247	0.16598	31.865	33.760	156.68	43.318	53.714	161.07	45.375	9.9321	0.0073382
-34.000	0.13797	1389.1	0.00071987	13.953	13.962	73.541	56.720	95.010	818.92	-0.31820	317.73	0.11017	0.017130	6.2786	0.15927	31.899	33.799	156.49	43.478	53.945	161.22	44.816	9.9726	0.0073901
-33.000	0.14413	1386.2	0.00072142	14.048	14.057	73.937	56.740	95.139	814.26	-0.31516	313.93	0.10970	0.016969	6.5407	0.15289	31.933	33.838	156.31	43.638	54.179	161.37	44.267	10.013	0.0074422
-32.000	0.15050	1383.2	0.00072297	14.143	14.152	74.332	56.760	95.270	809.60	-0.31206	310.19	0.10924	0.016808	6.8113	0.14682	31.967	33.877	156.13	43.800	54.416	161.51	43.729	10.053	0.0074946
-31.000	0.15708	1380.2	0.00072454	14.238	14.248	74.725	56.782	95.405	804.94	-0.30890	306.51	0.10877	0.016647	7.0905	0.14103	32.001	33.916	155.95	43.963	54.655	161.65	43.201	10.094	0.0075473
-30.000	0.16389	1377.2	0.00072612	14.333	14.344	75.118	56.805	95.542	800.28	-0.30568	302.89	0.10830	0.016486	7.3785	0.13553	32.035	33.955	155.77	44.126	54.898	161.78	42.683	10.134	0.0076003
-29.000	0.17092	1374.2	0.00072772	14.429	14.439	75.509	56.830	95.682	795.62	-0.30240	299.34	0.10784	0.016326	7.6756	0.13028	32.068	33.994	155.60	44.291	55.144	161.90	42.175	10.174	0.0076535
-28.000	0.17819	1371.1	0.00072932	14.524	14.535	75.899	56.855	95.825	790.95	-0.29906	295.84	0.10738	0.016166	7.9819	0.12528	32.102	34.032	155.43	44.456	55.393	162.03	41.677	10.215	0.0077070
-27.000	0.18569	1368.1	0.00073094	14.620	14.631	76.289	56.882	95.971	786.29	-0.29566	292.39	0.10691	0.016006	8.2976	0.12052	32.135	34.070	155.26	44.623	55.645	162.14	41.188	10.255	0.0077609
-26.000	0.19344	1365.0	0.00073258	14.715	14.728	76.677	56.910	96.120	781.62	-0.29219	289.00	0.10645	0.015846	8.6230	0.11597	32.169	34.109	155.09	44.790	55.900	162.25	40.709	10.296	0.0078149
-25.000	0.20143	1362.0	0.00073422	14.811	14.824	77.064	56.939	96.271	776.96	-0.28866	285.66	0.10599	0.015687	8.9582	0.11163	32.202	34.146	154.93	44.959	56.159	162.36	40.238	10.336	0.0078693
-24.000	0.20968	1358.9	0.00073588	14.907	14.921	77.451	56.970	96.426	772.29	-0.28506	282.37	0.10552	0.015528	9.3035	0.10749	32.235	34.184	154.77	45.128	56.420	162.46	39.776	10.376	0.0079240
-23.000	0.21819	1355.8	0.00073755	15.004	15.017	77.836	57.001	96.584	767.62	-0.28140	279.13	0.10506	0.015369	9.6591	0.10353	32.269	34.222	154.61	45.298	56.686	162.56	39.323	10.417	0.0079789
-22.000	0.22696	1352.7	0.00073923	15.100	15.114	78.220	57.034	96.744	762.95	-0.27767	275.94	0.10460	0.015211	10.025	0.099749	32.302	34.259	154.45	45.470	56.954	162.65	38.878	10.457	0.0080342
-21.000	0.23600	1349.6	0.00074093	15.196	15.211	78.604	57.068	96.908	758.28	-0.27386	272.80	0.10414	0.015052	10.402	0.096135	32.334	34.296	154.29	45.642	57.227	162.74	38.442	10.498	0.0080898
-20.000	0.24531	1346.5	0.00074265	15.293	15.309	78.986	57.103	97.074	753.61	-0.26999	269.71	0.10368	0.014894	10.790	0.092681	32.367	34.333	154.14	45.815	57.502	162.82	38.013	10.538	0.0081456
-19.000	0.25491	1343.4	0.00074438	15.390	15.406	79.368	57.139	97.244	748.94	-0.26605	266.66	0.10322	0.014737	11.189	0.089376	32.400	34.370	153.98	45.989	57.782	162.90	37.592	10.579	0.0082018
-18.000	0.26479	1340.3	0.00074612	15.487	15.504	79.749	57.176	97.417	744.26	-0.26203	263.65	0.10276	0.014579	11.599	0.086214	32.432	34.406	153.83	46.164	58.065	162.97	37.179	10.619	0.0082583
-17.000	0.27496	1337.1	0.00074788	15.584	15.601	80.128	57.214	97.593	739.59	-0.25793	260.69	0.10230	0.014422	12.021	0.083188	32.465	34.443	153.68	46.340	58.352	163.04	36.774	10.660	0.0083151
-16.000	0.28542	1334.0	0.00074965	15.681	15.699	80.507	57.254	97.772	734.91	-0.25376	257.77	0.10184	0.014265	12.455	0.080290	32.497	34.479	153.54	46.517	58.643	163.10	36.376	10.701	0.0083722
-15.000	0.29620	1330.8	0.00075144	15.778	15.797	80.886	57.294	97.954	730.23	-0.24951	254.89	0.10138	0.014108	12.901	0.077514	32.529	34.515	153.39	46.696	58.937	163.15	35.985	10.741	0.0084297
-14.000	0.30727	1327.6	0.00075324	15.876	15.896	81.263	57.336	98.139	725.56	-0.24518	252.04	0.10092	0.013952	13.359	0.074854	32.562	34.550	153.25	46.875	59.236	163.20	35.601	10.782	0.0084874
-13.000	0.31867	1324.4	0.00075506	15.973	15.994	81.639	57.379	98.328	720.88	-0.24076	249.24	0.10047	0.013796	13.830	0.072305	32.593	34.586	153.10	47.055	59.539	163.25	35.224	10.823	0.0085455
-12.000	0.33038	1321.2	0.00075690	16.071	16.093	82.015	57.423	98.520	716.19	-0.23627	246.48	0.10001	0.013640	14.314	0.069860	32.625	34.621	152.96	47.236	59.846	163.29	34.854	10.864	0.0086040
-11.000	0.34242	1318.0	0.00075875	16.169	16.192	82.390	57.468	98.716	711.51	-0.23168	243.75	0.099550	0.013485	14.811	0.067515	32.657	34.656	152.82	47.418	60.158	163.32	34.490	10.905	0.0086628
-10.000	0.35478	1314.7	0.00076062	16.268	16.291	82.764	57.513	98.914	706.83	-0.22701	241.06	0.099092	0.013330	15.322	0.065266	32.688	34.691	152.69	47.601	60.474	163.35	34.133	10.946	0.0087219
-9.0000	0.36749	1311.5	0.00076251	16.366	16.390	83.138	57.560	99.117	702.14	-0.22225	238.41	0.098635	0.013175	15.846	0.063106	32.720	34.725	152.55	47.785	60.794	163.37	33.783	10.987	0.0087814
-8.0000	0.38054	1308.2	0.00076441	16.465	16.490	83.510	57.609	99.322	697.45	-0.21740	235.79	0.098178	0.013020	16.384	0.061033	32.751	34.759	152.41	47.970	61.119	163.39	33.438	11.029	0.0088412
-7.0000	0.39393	1304.9	0.00076634	16.563	16.589	83.882	57.658	99.532	692.76	-0.21245	233.20	0.097721	0.012866	16.937	0.059042	32.782	34.793	152.28	48.156	61.448	163.40	33.100	11.070	0.0089014
-6.0000	0.40769	1301.6	0.00076828	16.662	16.689	84.254	57.708	99.744	688.07	-0.20741	230.65	0.097264	0.012712	17.504	0.057129	32.813	34.827	152.15	48.343	61.783	163.40	32.768	11.112	0.0089620
-5.0000	0.42180	1298.3	0.00077024	16.761	16.790	84.624	57.759	99.961	683.38	-0.20226	228.13	0.096808	0.012559	18.086	0.055291	32.844	34.860	152.02	48.531	62.122	163.40	32.441	11.153	0.0090229
-4.0000	0.43628	1295.0	0.00077222	16.861	16.890	84.994	57.811	100.18	678.68	-0.19702	225.64	0.096351	0.012405	18.683	0.053524	32.874	34.894	151.89	48.720	62.466	163.39	32.121	11.195	0.0090842
-3.0000	0.45113	1291.6	0.00077421	16.960	16.990	85.364	57.864	100.41	673.98	-0.19167	223.18	0.095895	0.012252	19.296	0.051825	32.905	34.927	151.76	48.909	62.816	163.38	31.806	11.237	0.0091459
-2.0000	0.46636	1288.3	0.00077623	17.060	17.091	85.732	57.918	100.63	669.29	-0.18621	220.75	0.095439	0.012100	19.924	0.050191	32.935	34.959	151.63	49.100	63.171	163.36	31.496	11.279	0.0092080
-1.0000	0.48198	1284.9	0.00077827	17.160	17.192	86.101	57.973	100.86	664.58	-0.18065	218.35	0.094982	0.011948	20.569	0.048618	32.965	34.992	151.50	49.292	63.531	163.34	31.192	11.321	0.0092705
0.0000	0.49798	1281.5	0.00078033	17.260	17.294	86.468	58.029	101.10	659.88	-0.17497	215.98	0.094526	0.011796	21.229	0.047105	32.995	35.024	151.38	49.485	63.897	163.31	30.893	11.363	0.0093334
