Temperature (C)	Pressure (MPa)	Density (l, kg/m3)	Volume (l, m3/kg)	Internal Energy (l, kJ/mol)	Enthalpy (l, kJ/mol)	Entropy (l, J/mol*K)	Cv (l, J/mol*K)	Cp (l, J/mol*K)	Sound Spd. (l, m/s)	Joule-Thomson (l, K/MPa)	Viscosity (l, uPa*s)	Therm. Cond. (l, W/m*K)	Surf. Tension (l, N/m)	Density (v, kg/m3)	Volume (v, m3/kg)	Internal Energy (v, kJ/mol)	Enthalpy (v, kJ/mol)	Entropy (v, J/mol*K)	Cv (v, J/mol*K)	Cp (v, J/mol*K)	Sound Spd. (v, m/s)	Joule-Thomson (v, K/MPa)	Viscosity (v, uPa*s)	Therm. Cond. (v, W/m*K)
-100.00	0.0011885	1679.1	0.00059555	13.702	13.702	73.480	63.741	98.974	1035.0	-0.53080	1044.3	0.11672	0.026539	0.099959	10.004	35.573	37.010	208.10	45.922	54.297	118.49	111.11	6.7811	0.0042696
-99.000	0.0013044	1676.5	0.00059648	13.801	13.801	74.050	63.765	99.030	1030.4	-0.52978	1020.9	0.11623	0.026380	0.10908	9.1672	35.618	37.064	207.63	46.111	54.490	118.79	108.81	6.8203	0.0043086
-98.000	0.0014298	1673.9	0.00059741	13.900	13.900	74.617	63.791	99.089	1025.9	-0.52873	998.30	0.11575	0.026222	0.11890	8.4104	35.664	37.118	207.18	46.300	54.684	119.08	106.58	6.8595	0.0043478
-97.000	0.0015653	1671.3	0.00059835	13.999	13.999	75.182	63.818	99.149	1021.3	-0.52765	976.54	0.11527	0.026064	0.12945	7.7251	35.710	37.172	206.73	46.489	54.877	119.37	104.42	6.8986	0.0043871
-96.000	0.0017117	1668.6	0.00059930	14.098	14.098	75.743	63.848	99.213	1016.8	-0.52655	955.55	0.11480	0.025906	0.14077	7.1037	35.756	37.226	206.30	46.677	55.070	119.67	102.32	6.9378	0.0044265
-95.000	0.0018696	1666.0	0.00060024	14.197	14.197	76.302	63.879	99.278	1012.2	-0.52542	935.29	0.11432	0.025749	0.15291	6.5397	35.802	37.280	205.87	46.865	55.264	119.96	100.28	6.9770	0.0044661
-94.000	0.0020397	1663.4	0.00060119	14.297	14.297	76.858	63.912	99.346	1007.7	-0.52427	915.71	0.11385	0.025591	0.16592	6.0271	35.848	37.335	205.45	47.052	55.457	120.25	98.300	7.0162	0.0045058
-93.000	0.0022228	1660.7	0.00060214	14.396	14.396	77.411	63.947	99.417	1003.2	-0.52309	896.80	0.11338	0.025434	0.17983	5.5607	35.895	37.389	205.04	47.239	55.649	120.54	96.374	7.0553	0.0045456
-92.000	0.0024197	1658.1	0.00060310	14.495	14.496	77.961	63.983	99.489	998.68	-0.52189	878.52	0.11291	0.025277	0.19471	5.1359	35.941	37.444	204.64	47.426	55.842	120.82	94.503	7.0945	0.0045856
-91.000	0.0026311	1655.5	0.00060406	14.595	14.595	78.509	64.022	99.564	994.18	-0.52066	860.83	0.11244	0.025120	0.21059	4.7485	35.988	37.499	204.25	47.612	56.035	121.11	92.685	7.1337	0.0046257
-90.000	0.0028580	1652.8	0.00060503	14.695	14.695	79.054	64.061	99.641	989.68	-0.51941	843.73	0.11197	0.024964	0.22754	4.3948	36.035	37.554	203.87	47.798	56.228	121.39	90.917	7.1729	0.0046659
-89.000	0.0031013	1650.2	0.00060599	14.794	14.794	79.597	64.103	99.719	985.20	-0.51813	827.16	0.11151	0.024807	0.24561	4.0715	36.082	37.609	203.49	47.984	56.421	121.67	89.199	7.2120	0.0047063
-88.000	0.0033617	1647.5	0.00060697	14.894	14.894	80.137	64.145	99.800	980.72	-0.51683	811.13	0.11104	0.024651	0.26485	3.7757	36.129	37.664	203.12	48.169	56.613	121.95	87.528	7.2512	0.0047468
-87.000	0.0036404	1644.9	0.00060794	14.994	14.994	80.675	64.190	99.883	976.26	-0.51551	795.59	0.11058	0.024495	0.28532	3.5049	36.177	37.720	202.76	48.354	56.806	122.23	85.902	7.2903	0.0047875
-86.000	0.0039383	1642.2	0.00060892	15.094	15.094	81.210	64.235	99.968	971.80	-0.51416	780.53	0.11012	0.024339	0.30708	3.2565	36.224	37.775	202.40	48.538	56.999	122.51	84.322	7.3295	0.0048283
-85.000	0.0042565	1639.6	0.00060991	15.194	15.194	81.743	64.282	100.05	967.35	-0.51278	765.94	0.10967	0.024184	0.33019	3.0286	36.272	37.831	202.05	48.723	57.192	122.79	82.784	7.3686	0.0048692
-84.000	0.0045959	1636.9	0.00061089	15.294	15.294	82.274	64.331	100.14	962.90	-0.51138	751.78	0.10921	0.024028	0.35471	2.8192	36.320	37.886	201.71	48.907	57.384	123.06	81.288	7.4077	0.0049102
-83.000	0.0049578	1634.3	0.00061189	15.394	15.394	82.802	64.380	100.23	958.47	-0.50996	738.04	0.10876	0.023873	0.38072	2.6266	36.368	37.942	201.38	49.090	57.577	123.33	79.832	7.4468	0.0049514
-82.000	0.0053432	1631.6	0.00061288	15.494	15.495	83.328	64.431	100.33	954.04	-0.50851	724.71	0.10830	0.023718	0.40827	2.4494	36.416	37.998	201.05	49.274	57.770	123.60	78.416	7.4859	0.0049927
-81.000	0.0057534	1629.0	0.00061388	15.595	15.595	83.852	64.483	100.42	949.62	-0.50703	711.77	0.10785	0.023564	0.43743	2.2861	36.464	38.054	200.73	49.457	57.964	123.87	77.037	7.5250	0.0050342
-80.000	0.0061895	1626.3	0.00061489	15.695	15.696	84.373	64.537	100.52	945.21	-0.50554	699.20	0.10741	0.023409	0.46827	2.1355	36.512	38.110	200.42	49.639	58.157	124.14	75.694	7.5641	0.0050757
-79.000	0.0066529	1623.6	0.00061590	15.796	15.796	84.892	64.591	100.61	940.80	-0.50401	686.98	0.10696	0.023255	0.50087	1.9965	36.560	38.166	200.11	49.822	58.350	124.41	74.387	7.6031	0.0051174
-78.000	0.0071449	1621.0	0.00061691	15.896	15.897	85.410	64.647	100.71	936.41	-0.50247	675.11	0.10651	0.023101	0.53531	1.8681	36.609	38.223	199.81	50.004	58.544	124.67	73.115	7.6421	0.0051593
-77.000	0.0076667	1618.3	0.00061793	15.997	15.998	85.925	64.703	100.81	932.02	-0.50090	663.57	0.10607	0.022947	0.57164	1.7494	36.657	38.279	199.52	50.186	58.738	124.93	71.876	7.6811	0.0052012
-76.000	0.0082198	1615.6	0.00061895	16.098	16.098	86.437	64.761	100.92	927.64	-0.49930	652.34	0.10563	0.022793	0.60996	1.6395	36.706	38.336	199.23	50.368	58.932	125.19	70.669	7.7201	0.0052433
-75.000	0.0088056	1612.9	0.00061998	16.199	16.199	86.948	64.820	101.02	923.26	-0.49768	641.42	0.10519	0.022640	0.65034	1.5377	36.755	38.392	198.95	50.549	59.126	125.45	69.493	7.7591	0.0052855
-74.000	0.0094256	1610.3	0.00062101	16.300	16.301	87.457	64.879	101.13	918.90	-0.49603	630.80	0.10475	0.022487	0.69286	1.4433	36.804	38.449	198.67	50.730	59.320	125.70	68.347	7.7980	0.0053279
-73.000	0.010081	1607.6	0.00062205	16.401	16.402	87.964	64.940	101.23	914.54	-0.49436	620.45	0.10431	0.022334	0.73761	1.3557	36.853	38.506	198.40	50.911	59.515	125.96	67.231	7.8369	0.0053703
-72.000	0.010774	1604.9	0.00062309	16.502	16.503	88.468	65.001	101.34	910.19	-0.49267	610.38	0.10387	0.022181	0.78466	1.2744	36.902	38.563	198.14	51.092	59.710	126.21	66.144	7.8758	0.0054129
-71.000	0.011506	1602.2	0.00062414	16.604	16.605	88.971	65.064	101.45	905.85	-0.49095	600.57	0.10344	0.022028	0.83411	1.1989	36.952	38.620	197.88	51.272	59.905	126.46	65.084	7.9146	0.0054556
-70.000	0.012278	1599.5	0.00062519	16.705	16.706	89.472	65.127	101.56	901.51	-0.48920	591.01	0.10300	0.021876	0.88605	1.1286	37.001	38.677	197.62	51.452	60.101	126.71	64.051	7.9534	0.0054985
-69.000	0.013092	1596.8	0.00062625	16.807	16.808	89.971	65.191	101.68	897.18	-0.48743	581.69	0.10257	0.021724	0.94056	1.0632	37.051	38.734	197.37	51.632	60.297	126.95	63.044	7.9922	0.0055415
-68.000	0.013950	1594.1	0.00062731	16.908	16.910	90.468	65.256	101.79	892.86	-0.48563	572.61	0.10214	0.021572	0.99774	1.0023	37.100	38.791	197.13	51.812	60.493	127.20	62.062	8.0310	0.0055845
-67.000	0.014854	1591.4	0.00062838	17.010	17.011	90.963	65.322	101.91	888.54	-0.48381	563.75	0.10171	0.021420	1.0577	0.94547	37.150	38.848	196.89	51.992	60.690	127.44	61.105	8.0697	0.0056278
-66.000	0.015805	1588.7	0.00062945	17.112	17.113	91.456	65.389	102.03	884.24	-0.48196	555.11	0.10129	0.021269	1.1205	0.89249	37.200	38.905	196.65	52.171	60.887	127.68	60.171	8.1084	0.0056711
-65.000	0.016806	1586.0	0.00063053	17.214	17.216	91.948	65.456	102.15	879.94	-0.48008	546.69	0.10086	0.021117	1.1862	0.84303	37.250	38.963	196.43	52.350	61.084	127.91	59.261	8.1471	0.0057146
-64.000	0.017858	1583.3	0.00063161	17.316	17.318	92.437	65.524	102.27	875.64	-0.47818	538.46	0.10044	0.020966	1.2550	0.79682	37.300	39.020	196.20	52.529	61.282	128.15	58.373	8.1857	0.0057582
-63.000	0.018962	1580.5	0.00063270	17.419	17.420	92.925	65.593	102.39	871.36	-0.47625	530.43	0.10001	0.020816	1.3269	0.75362	37.350	39.077	195.98	52.708	61.481	128.38	57.507	8.2243	0.0058019
-62.000	0.020122	1577.8	0.00063379	17.521	17.523	93.412	65.662	102.51	867.08	-0.47429	522.59	0.099593	0.020665	1.4021	0.71320	37.400	39.135	195.77	52.887	61.680	128.61	56.662	8.2629	0.0058457
-61.000	0.021339	1575.1	0.00063489	17.624	17.625	93.896	65.732	102.64	862.80	-0.47231	514.93	0.099173	0.020515	1.4807	0.67537	37.450	39.193	195.56	53.065	61.879	128.84	55.837	8.3014	0.0058897
-60.000	0.022615	1572.3	0.00063599	17.726	17.728	94.379	65.803	102.76	858.54	-0.47030	507.45	0.098754	0.020365	1.5627	0.63992	37.500	39.250	195.35	53.244	62.079	129.06	55.033	8.3399	0.0059338
-59.000	0.023952	1569.6	0.00063711	17.829	17.831	94.860	65.874	102.89	854.28	-0.46826	500.14	0.098337	0.020215	1.6483	0.60669	37.551	39.308	195.15	53.422	62.279	129.28	54.248	8.3784	0.0059780
-58.000	0.025353	1566.9	0.00063822	17.932	17.934	95.339	65.946	103.02	850.02	-0.46619	493.00	0.097921	0.020065	1.7375	0.57553	37.601	39.365	194.95	53.600	62.481	129.50	53.481	8.4168	0.0060223
-57.000	0.026819	1564.1	0.00063934	18.035	18.037	95.817	66.018	103.15	845.78	-0.46409	486.01	0.097506	0.019916	1.8306	0.54627	37.652	39.423	194.76	53.778	62.682	129.72	52.734	8.4552	0.0060668
-56.000	0.028353	1561.4	0.00064047	18.138	18.140	96.293	66.092	103.28	841.53	-0.46197	479.18	0.097093	0.019767	1.9276	0.51879	37.702	39.481	194.57	53.956	62.884	129.93	52.003	8.4936	0.0061113
-55.000	0.029957	1558.6	0.00064160	18.242	18.244	96.768	66.165	103.41	837.30	-0.45981	472.50	0.096681	0.019618	2.0285	0.49297	37.753	39.539	194.38	54.133	63.087	130.15	51.291	8.5319	0.0061560
-54.000	0.031633	1555.8	0.00064274	18.345	18.347	97.241	66.239	103.55	833.07	-0.45763	465.97	0.096270	0.019469	2.1336	0.46868	37.804	39.596	194.20	54.311	63.291	130.36	50.595	8.5702	0.0062008
-53.000	0.033384	1553.1	0.00064389	18.449	18.451	97.712	66.314	103.68	828.85	-0.45542	459.57	0.095861	0.019320	2.2430	0.44583	37.855	39.654	194.02	54.488	63.495	130.56	49.915	8.6084	0.0062458
-52.000	0.035212	1550.3	0.00064504	18.552	18.555	98.182	66.389	103.82	824.64	-0.45317	453.31	0.095453	0.019172	2.3567	0.42432	37.905	39.712	193.85	54.666	63.700	130.77	49.251	8.6466	0.0062908
-51.000	0.037120	1547.5	0.00064620	18.656	18.659	98.651	66.465	103.96	820.43	-0.45090	447.19	0.095046	0.019024	2.4749	0.40405	37.956	39.770	193.68	54.843	63.906	130.97	48.603	8.6848	0.0063360
-50.000	0.039110	1544.7	0.00064737	18.760	18.763	99.118	66.541	104.10	816.22	-0.44859	441.19	0.094640	0.018876	2.5978	0.38494	38.007	39.828	193.51	55.020	64.113	131.17	47.969	8.7229	0.0063813
-49.000	0.041184	1541.9	0.00064854	18.864	18.867	99.583	66.618	104.24	812.03	-0.44625	435.31	0.094236	0.018729	2.7254	0.36693	38.058	39.886	193.35	55.197	64.320	131.36	47.351	8.7610	0.0064268
-48.000	0.043345	1539.1	0.00064972	18.968	18.972	100.05	66.695	104.38	807.83	-0.44388	429.55	0.093833	0.018582	2.8578	0.34992	38.110	39.944	193.19	55.375	64.528	131.55	46.746	8.7991	0.0064723
-47.000	0.045596	1536.3	0.00065090	19.073	19.076	100.51	66.772	104.52	803.65	-0.44148	423.91	0.093431	0.018435	2.9952	0.33387	38.161	40.001	193.04	55.552	64.737	131.74	46.155	8.8371	0.0065180
-46.000	0.047939	1533.5	0.00065209	19.177	19.181	100.97	66.850	104.67	799.47	-0.43905	418.38	0.093030	0.018288	3.1378	0.31870	38.212	40.059	192.88	55.729	64.947	131.93	45.578	8.8751	0.0065638
-45.000	0.050377	1530.7	0.00065329	19.282	19.286	101.43	66.928	104.81	795.29	-0.43658	412.97	0.092630	0.018141	3.2856	0.30436	38.263	40.117	192.74	55.905	65.158	132.11	45.014	8.9130	0.0066097
-44.000	0.052913	1527.9	0.00065450	19.387	19.391	101.89	67.007	104.96	791.12	-0.43407	407.65	0.092232	0.017995	3.4388	0.29080	38.315	40.175	192.59	56.082	65.369	132.29	44.462	8.9510	0.0066558
-43.000	0.055549	1525.1	0.00065571	19.492	19.496	102.35	67.086	105.11	786.96	-0.43154	402.45	0.091835	0.017849	3.5975	0.27797	38.366	40.233	192.45	56.259	65.582	132.47	43.923	8.9889	0.0067019
-42.000	0.058288	1522.2	0.00065693	19.597	19.601	102.80	67.165	105.26	782.80	-0.42896	397.34	0.091439	0.017703	3.7619	0.26582	38.417	40.291	192.31	56.436	65.796	132.65	43.396	9.0267	0.0067482
-41.000	0.061133	1519.4	0.00065816	19.702	19.707	103.26	67.245	105.41	778.65	-0.42635	392.32	0.091044	0.017558	3.9321	0.25432	38.469	40.348	192.17	56.613	66.010	132.82	42.881	9.0645	0.0067946
-40.000	0.064087	1516.5	0.00065939	19.807	19.812	103.71	67.325	105.56	774.50	-0.42371	387.41	0.090650	0.017412	4.1082	0.24342	38.520	40.406	192.04	56.790	66.226	132.99	42.377	9.1023	0.0068412
-39.000	0.067153	1513.7	0.00066063	19.913	19.918	104.16	67.406	105.72	770.36	-0.42102	382.58	0.090257	0.017267	4.2904	0.23308	38.572	40.464	191.91	56.967	66.443	133.15	41.885	9.1401	0.0068878
-38.000	0.070333	1510.8	0.00066188	20.018	20.024	104.61	67.486	105.87	766.22	-0.41830	377.85	0.089865	0.017123	4.4788	0.22328	38.623	40.522	191.78	57.144	66.661	133.31	41.403	9.1778	0.0069346
-37.000	0.073630	1508.0	0.00066314	20.124	20.130	105.06	67.567	106.03	762.09	-0.41554	373.19	0.089475	0.016978	4.6736	0.21397	38.675	40.580	191.65	57.320	66.880	133.47	40.931	9.2155	0.0069815
-36.000	0.077049	1505.1	0.00066441	20.230	20.236	105.51	67.649	106.19	757.97	-0.41275	368.63	0.089085	0.016834	4.8748	0.20513	38.726	40.637	191.53	57.497	67.100	133.63	40.470	9.2532	0.0070285
-35.000	0.080590	1502.2	0.00066568	20.336	20.343	105.95	67.730	106.35	753.84	-0.40991	364.15	0.088697	0.016690	5.0828	0.19674	38.778	40.695	191.41	57.674	67.322	133.78	40.019	9.2909	0.0070757
-34.000	0.084259	1499.3	0.00066696	20.443	20.449	106.40	67.812	106.51	749.73	-0.40703	359.74	0.088309	0.016546	5.2976	0.18877	38.829	40.752	191.30	57.851	67.544	133.93	39.578	9.3285	0.0071230
-33.000	0.088057	1496.4	0.00066825	20.549	20.556	106.84	67.895	106.67	745.61	-0.40411	355.41	0.087923	0.016402	5.5193	0.18118	38.881	40.810	191.18	58.028	67.768	134.07	39.146	9.3661	0.0071704
-32.000	0.091988	1493.5	0.00066955	20.656	20.663	107.29	67.977	106.83	741.50	-0.40115	351.16	0.087538	0.016259	5.7482	0.17397	38.932	40.867	191.07	58.206	67.994	134.21	38.723	9.4037	0.0072179
-31.000	0.096055	1490.6	0.00067085	20.762	20.770	107.73	68.060	107.00	737.40	-0.39814	346.98	0.087153	0.016116	5.9843	0.16710	38.984	40.925	190.96	58.383	68.220	134.35	38.310	9.4412	0.0072656
-30.000	0.10026	1487.7	0.00067217	20.869	20.877	108.17	68.143	107.16	733.30	-0.39509	342.88	0.086770	0.015974	6.2279	0.16057	39.036	40.982	190.85	58.560	68.449	134.49	37.905	9.4788	0.0073134
-29.000	0.10461	1484.8	0.00067349	20.976	20.985	108.61	68.226	107.33	729.21	-0.39200	338.84	0.086387	0.015831	6.4791	0.15434	39.087	41.040	190.75	58.737	68.678	134.62	37.509	9.5163	0.0073613
-28.000	0.10910	1481.9	0.00067482	21.084	21.093	109.05	68.309	107.50	725.12	-0.38886	334.87	0.086006	0.015689	6.7381	0.14841	39.139	41.097	190.65	58.915	68.909	134.74	37.121	9.5538	0.0074093
-27.000	0.11375	1478.9	0.00067616	21.191	21.200	109.48	68.393	107.67	721.03	-0.38567	330.96	0.085625	0.015547	7.0049	0.14276	39.191	41.154	190.55	59.092	69.141	134.87	36.741	9.5914	0.0074575
-26.000	0.11854	1476.0	0.00067751	21.299	21.308	109.92	68.477	107.84	716.95	-0.38244	327.12	0.085246	0.015405	7.2799	0.13736	39.242	41.211	190.45	59.270	69.375	134.99	36.369	9.6289	0.0075058
-25.000	0.12349	1473.0	0.00067887	21.406	21.416	110.36	68.561	108.02	712.87	-0.37916	323.34	0.084867	0.015264	7.5631	0.13222	39.294	41.268	190.35	59.448	69.611	135.10	36.005	9.6664	0.0075542
-24.000	0.12860	1470.1	0.00068024	21.514	21.525	110.79	68.645	108.19	708.80	-0.37582	319.63	0.084489	0.015123	7.8548	0.12731	39.345	41.325	190.26	59.625	69.848	135.22	35.648	9.7038	0.0076027
-23.000	0.13387	1467.1	0.00068162	21.622	21.633	111.22	68.730	108.37	704.72	-0.37244	315.97	0.084112	0.014982	8.1551	0.12262	39.397	41.382	190.17	59.803	70.087	135.32	35.299	9.7413	0.0076514
-22.000	0.13931	1464.1	0.00068300	21.730	21.742	111.65	68.815	108.55	700.66	-0.36901	312.37	0.083736	0.014842	8.4641	0.11815	39.449	41.439	190.08	59.981	70.328	135.43	34.957	9.7788	0.0077003
-21.000	0.14492	1461.1	0.00068440	21.839	21.851	112.08	68.900	108.73	696.59	-0.36552	308.82	0.083361	0.014701	8.7821	0.11387	39.500	41.496	189.99	60.160	70.570	135.53	34.622	9.8163	0.0077492
-20.000	0.15070	1458.1	0.00068581	21.947	21.960	112.51	68.985	108.91	692.53	-0.36198	305.33	0.082987	0.014561	9.1093	0.10978	39.552	41.552	189.91	60.338	70.814	135.63	34.294	9.8538	0.0077983
-19.000	0.15666	1455.1	0.00068722	22.056	22.069	112.94	69.070	109.10	688.48	-0.35838	301.90	0.082614	0.014422	9.4457	0.10587	39.603	41.609	189.83	60.517	71.060	135.72	33.972	9.8913	0.0078475
-18.000	0.16279	1452.1	0.00068865	22.165	22.178	113.37	69.155	109.28	684.43	-0.35473	298.52	0.082241	0.014282	9.7917	0.10213	39.655	41.665	189.74	60.695	71.308	135.81	33.657	9.9289	0.0078969
-17.000	0.16911	1449.1	0.00069009	22.274	22.288	113.80	69.241	109.47	680.38	-0.35102	295.18	0.081869	0.014143	10.147	0.098548	39.706	41.721	189.66	60.874	71.558	135.90	33.348	9.9664	0.0079464
-16.000	0.17562	1446.1	0.00069154	22.383	22.398	114.22	69.327	109.66	676.33	-0.34725	291.90	0.081498	0.014004	10.513	0.095121	39.758	41.778	189.59	61.053	71.810	135.98	33.046	10.004	0.0079960
-15.000	0.18231	1443.0	0.00069300	22.493	22.508	114.65	69.413	109.85	672.29	-0.34342	288.66	0.081128	0.013866	10.889	0.091839	39.809	41.834	189.51	61.233	72.064	136.05	32.750	10.042	0.0080458
-14.000	0.18920	1440.0	0.00069447	22.602	22.618	115.07	69.499	110.04	668.24	-0.33953	285.48	0.080759	0.013727	11.274	0.088696	39.861	41.890	189.44	61.412	72.320	136.13	32.459	10.079	0.0080957
-13.000	0.19629	1436.9	0.00069595	22.712	22.729	115.50	69.585	110.23	664.21	-0.33558	282.34	0.080390	0.013589	11.671	0.085683	39.912	41.946	189.36	61.592	72.578	136.20	32.174	10.117	0.0081457
-12.000	0.20358	1433.8	0.00069744	22.822	22.839	115.92	69.671	110.43	660.17	-0.33156	279.24	0.080022	0.013452	12.078	0.082796	39.963	42.001	189.29	61.771	72.838	136.26	31.895	10.154	0.0081959
-11.000	0.21108	1430.7	0.00069894	22.932	22.950	116.34	69.758	110.63	656.14	-0.32748	276.19	0.079655	0.013314	12.496	0.080026	40.014	42.057	189.22	61.951	73.101	136.32	31.622	10.192	0.0082462
-10.000	0.21878	1427.6	0.00070046	23.042	23.061	116.76	69.845	110.83	652.11	-0.32332	273.18	0.079288	0.013177	12.925	0.077370	40.066	42.112	189.16	62.132	73.365	136.38	31.354	10.230	0.0082967
-9.0000	0.22670	1424.5	0.00070199	23.153	23.172	117.18	69.932	111.03	648.08	-0.31910	270.21	0.078923	0.013040	13.365	0.074821	40.117	42.168	189.09	62.312	73.633	136.43	31.091	10.268	0.0083473
-8.0000	0.23483	1421.4	0.00070353	23.264	23.284	117.60	70.019	111.23	644.05	-0.31481	267.28	0.078558	0.012904	13.817	0.072374	40.168	42.223	189.02	62.493	73.902	136.48	30.833	10.306	0.0083981
-7.0000	0.24318	1418.3	0.00070508	23.374	23.395	118.01	70.106	111.44	640.03	-0.31044	264.39	0.078193	0.012768	14.281	0.070025	40.219	42.278	188.96	62.674	74.175	136.52	30.581	10.344	0.0084490
-6.0000	0.25176	1415.1	0.00070664	23.485	23.507	118.43	70.193	111.65	636.01	-0.30600	261.54	0.077830	0.012632	14.756	0.067769	40.270	42.333	188.90	62.855	74.449	136.56	30.333	10.382	0.0085001
-5.0000	0.26057	1412.0	0.00070822	23.597	23.619	118.85	70.280	111.86	631.99	-0.30148	258.73	0.077467	0.012496	15.244	0.065601	40.321	42.388	188.84	63.036	74.727	136.59	30.090	10.420	0.0085513
-4.0000	0.26960	1408.8	0.00070981	23.708	23.731	119.26	70.368	112.07	627.97	-0.29689	255.96	0.077104	0.012361	15.744	0.063517	40.372	42.442	188.78	63.218	75.007	136.62	29.852	10.458	0.0086027
-3.0000	0.27887	1405.7	0.00071141	23.820	23.844	119.68	70.456	112.29	623.95	-0.29221	253.22	0.076742	0.012226	16.257	0.061514	40.422	42.497	188.72	63.400	75.290	136.65	29.618	10.496	0.0086542
-2.0000	0.28839	1402.5	0.00071303	23.932	23.957	120.09	70.543	112.50	619.94	-0.28745	250.52	0.076381	0.012091	16.782	0.059587	40.473	42.551	188.66	63.582	75.576	136.67	29.390	10.534	0.0087059
-1.0000	0.29814	1399.3	0.00071466	24.044	24.069	120.50	70.631	112.72	615.93	-0.28261	247.86	0.076021	0.011957	17.321	0.057734	40.524	42.605	188.61	63.765	75.864	136.68	29.165	10.573	0.0087577
0.0000	0.30815	1396.1	0.00071630	24.156	24.183	120.91	70.720	112.95	611.91	-0.27768	245.22	0.075661	0.011823	17.873	0.055951	40.574	42.659	188.55	63.948	76.156	136.69	28.945	10.611	0.0088097
