Temperature (C)	Pressure (MPa)	Density (l, kg/m3)	Volume (l, m3/kg)	Internal Energy (l, kJ/mol)	Enthalpy (l, kJ/mol)	Entropy (l, J/mol*K)	Cv (l, J/mol*K)	Cp (l, J/mol*K)	Sound Spd. (l, m/s)	Joule-Thomson (l, K/MPa)	Viscosity (l, uPa*s)	Therm. Cond. (l, W/m*K)	Surf. Tension (l, N/m)	Density (v, kg/m3)	Volume (v, m3/kg)	Internal Energy (v, kJ/mol)	Enthalpy (v, kJ/mol)	Entropy (v, J/mol*K)	Cv (v, J/mol*K)	Cp (v, J/mol*K)	Sound Spd. (v, m/s)	Joule-Thomson (v, K/MPa)	Viscosity (v, uPa*s)	Therm. Cond. (v, W/m*K)
-100.00	0.00016460	699.29	0.0014300	-0.79343	-0.79342	1.8484	84.209	117.03	1591.7	-0.54574	773.13	0.16164	0.027300	0.0066473	150.44	24.765	26.204	157.77	63.237	71.567	167.37	148.08	4.3110	0.0068318
-99.000	0.00018330	698.36	0.0014319	-0.67636	-0.67635	2.5225	84.241	117.11	1585.9	-0.54484	757.29	0.16120	0.027169	0.0073604	135.86	24.828	26.276	157.29	63.418	71.748	167.82	145.16	4.3361	0.0068897
-98.000	0.00020384	697.42	0.0014339	-0.55921	-0.55919	3.1933	84.274	117.20	1580.1	-0.54393	741.99	0.16076	0.027038	0.0081388	122.87	24.892	26.347	156.81	63.598	71.930	168.27	142.32	4.3613	0.0069480
-97.000	0.00022638	696.48	0.0014358	-0.44197	-0.44195	3.8608	84.309	117.29	1574.3	-0.54300	727.21	0.16031	0.026907	0.0089874	111.27	24.955	26.419	156.35	63.779	72.113	168.72	139.55	4.3864	0.0070066
-96.000	0.00025106	695.55	0.0014377	-0.32464	-0.32462	4.5250	84.346	117.38	1568.6	-0.54205	712.92	0.15987	0.026777	0.0099114	100.89	25.019	26.491	155.90	63.960	72.295	169.17	136.85	4.4115	0.0070655
-95.000	0.00027806	694.61	0.0014397	-0.20722	-0.20719	5.1860	84.384	117.47	1562.8	-0.54109	699.10	0.15942	0.026646	0.010916	91.606	25.083	26.563	155.45	64.141	72.478	169.61	134.23	4.4366	0.0071247
-94.000	0.00030757	693.67	0.0014416	-0.089705	-0.089680	5.8437	84.424	117.56	1557.0	-0.54012	685.73	0.15897	0.026516	0.012008	83.280	25.147	26.635	155.02	64.323	72.661	170.06	131.67	4.4617	0.0071843
-93.000	0.00033977	692.74	0.0014436	0.027898	0.027927	6.4984	84.465	117.65	1551.3	-0.53913	672.79	0.15853	0.026386	0.013192	75.805	25.211	26.708	154.60	64.505	72.845	170.50	129.18	4.4868	0.0072441
-92.000	0.00037486	691.80	0.0014455	0.14560	0.14563	7.1499	84.508	117.75	1545.5	-0.53813	660.25	0.15808	0.026255	0.014475	69.086	25.275	26.780	154.18	64.687	73.030	170.94	126.75	4.5119	0.0073043
-91.000	0.00041308	690.86	0.0014475	0.26339	0.26343	7.7984	84.552	117.84	1539.8	-0.53711	648.10	0.15762	0.026125	0.015863	63.038	25.340	26.853	153.78	64.870	73.214	171.38	124.38	4.5369	0.0073648
-90.000	0.00045463	689.92	0.0014494	0.38128	0.38132	8.4438	84.599	117.94	1534.0	-0.53608	636.33	0.15717	0.025995	0.017365	57.588	25.404	26.926	153.38	65.053	73.400	171.81	122.08	4.5620	0.0074256
-89.000	0.00049976	688.98	0.0014514	0.49927	0.49931	9.0863	84.646	118.04	1528.3	-0.53504	624.91	0.15672	0.025866	0.018986	52.670	25.469	26.999	152.99	65.236	73.586	172.25	119.83	4.5870	0.0074867
-88.000	0.00054873	688.04	0.0014534	0.61736	0.61741	9.7258	84.696	118.14	1522.6	-0.53398	613.84	0.15626	0.025736	0.020735	48.227	25.534	27.073	152.61	65.420	73.772	172.68	117.64	4.6120	0.0075481
-87.000	0.00060181	687.10	0.0014554	0.73556	0.73561	10.362	84.747	118.25	1516.9	-0.53290	603.09	0.15580	0.025606	0.022620	44.209	25.600	27.146	152.24	65.605	73.960	173.11	115.50	4.6370	0.0076099
-86.000	0.00065926	686.15	0.0014574	0.85386	0.85391	10.996	84.800	118.35	1511.1	-0.53181	592.65	0.15534	0.025477	0.024649	40.570	25.665	27.220	151.88	65.790	74.147	173.54	113.41	4.6620	0.0076719
-85.000	0.00072140	685.21	0.0014594	0.97226	0.97232	11.627	84.854	118.46	1505.4	-0.53070	582.52	0.15488	0.025347	0.026831	37.271	25.730	27.293	151.52	65.975	74.336	173.96	111.38	4.6870	0.0077343
-84.000	0.00078853	684.27	0.0014614	1.0908	1.0908	12.255	84.910	118.57	1499.7	-0.52958	572.67	0.15442	0.025218	0.029174	34.277	25.796	27.367	151.17	66.162	74.526	174.39	109.40	4.7119	0.0077970
-83.000	0.00086098	683.33	0.0014634	1.2094	1.2095	12.881	84.968	118.68	1494.0	-0.52844	563.09	0.15396	0.025089	0.031690	31.556	25.862	27.441	150.83	66.348	74.716	174.81	107.46	4.7368	0.0078600
-82.000	0.00093909	682.38	0.0014655	1.3281	1.3282	13.504	85.027	118.79	1488.3	-0.52728	553.78	0.15350	0.024960	0.034387	29.081	25.928	27.515	150.50	66.536	74.907	175.23	105.57	4.7618	0.0079233
-81.000	0.0010232	681.44	0.0014675	1.4470	1.4471	14.124	85.088	118.90	1482.7	-0.52612	544.72	0.15304	0.024831	0.037275	26.827	25.994	27.590	150.18	66.724	75.099	175.65	103.73	4.7867	0.0079870
-80.000	0.0011137	680.49	0.0014695	1.5659	1.5660	14.741	85.151	119.02	1477.0	-0.52493	535.91	0.15257	0.024702	0.040367	24.773	26.061	27.664	149.86	66.913	75.292	176.07	101.93	4.8116	0.0080509
-79.000	0.0012110	679.54	0.0014716	1.6850	1.6851	15.356	85.216	119.14	1471.3	-0.52373	527.33	0.15211	0.024574	0.043672	22.898	26.127	27.739	149.55	67.103	75.486	176.48	100.17	4.8364	0.0081152
-78.000	0.0013155	678.60	0.0014736	1.8042	1.8043	15.969	85.282	119.25	1465.6	-0.52251	518.97	0.15164	0.024445	0.047202	21.185	26.194	27.814	149.25	67.293	75.681	176.90	98.454	4.8613	0.0081798
-77.000	0.0014277	677.65	0.0014757	1.9235	1.9236	16.578	85.350	119.37	1460.0	-0.52127	510.84	0.15117	0.024317	0.050970	19.619	26.261	27.889	148.95	67.484	75.876	177.31	96.778	4.8861	0.0082446
-76.000	0.0015479	676.70	0.0014778	2.0429	2.0431	17.186	85.420	119.50	1454.3	-0.52002	502.91	0.15071	0.024188	0.054987	18.186	26.328	27.964	148.66	67.676	76.073	177.72	95.142	4.9110	0.0083098
-75.000	0.0016766	675.75	0.0014798	2.1625	2.1626	17.791	85.491	119.62	1448.7	-0.51876	495.18	0.15024	0.024060	0.059267	16.873	26.395	28.039	148.38	67.869	76.271	178.12	93.544	4.9358	0.0083753
-74.000	0.0018144	674.80	0.0014819	2.2822	2.2823	18.393	85.564	119.75	1443.0	-0.51747	487.64	0.14977	0.023932	0.063823	15.668	26.462	28.114	148.10	68.062	76.470	178.53	91.982	4.9605	0.0084412
-73.000	0.0019617	673.85	0.0014840	2.4020	2.4021	18.993	85.639	119.88	1437.4	-0.51617	480.29	0.14930	0.023804	0.068669	14.563	26.529	28.190	147.84	68.257	76.670	178.93	90.457	4.9853	0.0085073
-72.000	0.0021190	672.90	0.0014861	2.5219	2.5221	19.591	85.715	120.01	1431.7	-0.51485	473.12	0.14883	0.023676	0.073819	13.547	26.597	28.266	147.57	68.452	76.871	179.33	88.966	5.0101	0.0085737
-71.000	0.0022870	671.95	0.0014882	2.6420	2.6422	20.186	85.793	120.14	1426.1	-0.51352	466.12	0.14836	0.023548	0.079287	12.612	26.665	28.341	147.32	68.648	77.073	179.73	87.509	5.0348	0.0086405
-70.000	0.0024661	670.99	0.0014903	2.7622	2.7624	20.779	85.873	120.27	1420.5	-0.51217	459.28	0.14789	0.023421	0.085089	11.752	26.733	28.417	147.07	68.845	77.277	180.13	86.085	5.0595	0.0087076
-69.000	0.0026570	670.04	0.0014925	2.8825	2.8827	21.370	85.955	120.40	1414.8	-0.51080	452.61	0.14742	0.023293	0.091240	10.960	26.801	28.493	146.82	69.043	77.481	180.52	84.694	5.0842	0.0087749
-68.000	0.0028602	669.08	0.0014946	3.0030	3.0032	21.959	86.038	120.54	1409.2	-0.50941	446.10	0.14694	0.023166	0.097756	10.230	26.869	28.570	146.58	69.242	77.687	180.91	83.333	5.1088	0.0088426
-67.000	0.0030765	668.13	0.0014967	3.1236	3.1239	22.545	86.123	120.68	1403.6	-0.50801	439.73	0.14647	0.023039	0.10465	9.5552	26.938	28.646	146.35	69.442	77.895	181.30	82.003	5.1335	0.0089106
-66.000	0.0033064	667.17	0.0014989	3.2443	3.2446	23.130	86.210	120.82	1398.0	-0.50659	433.51	0.14600	0.022911	0.11195	8.9324	27.006	28.723	146.12	69.643	78.103	181.69	80.702	5.1581	0.0089789
-65.000	0.0035506	666.21	0.0015010	3.3652	3.3655	23.712	86.298	120.96	1392.4	-0.50515	427.43	0.14553	0.022784	0.11967	8.3565	27.075	28.799	145.90	69.844	78.313	182.07	79.430	5.1827	0.0090475
-64.000	0.0038099	665.25	0.0015032	3.4862	3.4866	24.292	86.388	121.11	1386.8	-0.50370	421.48	0.14505	0.022657	0.12782	7.8238	27.144	28.876	145.69	70.047	78.524	182.45	78.186	5.2073	0.0091164
-63.000	0.0040849	664.29	0.0015054	3.6074	3.6078	24.870	86.480	121.25	1381.2	-0.50222	415.66	0.14458	0.022531	0.13642	7.3305	27.213	28.953	145.48	70.251	78.736	182.83	76.970	5.2319	0.0091857
-62.000	0.0043764	663.33	0.0015075	3.7287	3.7291	25.446	86.573	121.40	1375.6	-0.50073	409.98	0.14410	0.022404	0.14549	6.8733	27.282	29.030	145.27	70.456	78.950	183.21	75.779	5.2564	0.0092552
-61.000	0.0046851	662.37	0.0015097	3.8502	3.8506	26.020	86.668	121.55	1370.0	-0.49922	404.41	0.14363	0.022278	0.15506	6.4493	27.351	29.107	145.07	70.662	79.165	183.59	74.615	5.2809	0.0093251
-60.000	0.0050120	661.40	0.0015119	3.9718	3.9723	26.592	86.765	121.70	1364.4	-0.49769	398.96	0.14315	0.022151	0.16513	6.0558	27.421	29.185	144.88	70.869	79.382	183.96	73.476	5.3054	0.0093952
-59.000	0.0053577	660.44	0.0015141	4.0936	4.0941	27.162	86.864	121.86	1358.8	-0.49615	393.63	0.14268	0.022025	0.17574	5.6902	27.490	29.262	144.69	71.077	79.600	184.33	72.361	5.3299	0.0094657
-58.000	0.0057232	659.47	0.0015164	4.2155	4.2160	27.730	86.964	122.01	1353.2	-0.49458	388.41	0.14221	0.021899	0.18690	5.3504	27.560	29.340	144.50	71.286	79.819	184.69	71.270	5.3544	0.0095365
-57.000	0.0061092	658.51	0.0015186	4.3376	4.3381	28.296	87.066	122.17	1347.6	-0.49300	383.30	0.14173	0.021773	0.19864	5.0343	27.630	29.418	144.32	71.496	80.040	185.06	70.202	5.3788	0.0096075
-56.000	0.0065168	657.54	0.0015208	4.4598	4.4604	28.860	87.169	122.33	1342.1	-0.49139	378.29	0.14126	0.021647	0.21097	4.7400	27.700	29.495	144.15	71.707	80.263	185.42	69.157	5.4032	0.0096789
-55.000	0.0069468	656.57	0.0015231	4.5822	4.5829	29.422	87.274	122.49	1336.5	-0.48977	373.39	0.14078	0.021521	0.22392	4.4659	27.770	29.573	143.98	71.919	80.487	185.78	68.134	5.4276	0.0097506
-54.000	0.0074001	655.60	0.0015253	4.7048	4.7055	29.983	87.381	122.66	1330.9	-0.48813	368.58	0.14030	0.021395	0.23751	4.2103	27.841	29.652	143.81	72.133	80.712	186.14	67.133	5.4520	0.0098226
-53.000	0.0078778	654.63	0.0015276	4.8275	4.8282	30.542	87.489	122.82	1325.4	-0.48648	363.87	0.13983	0.021270	0.25177	3.9719	27.911	29.730	143.65	72.347	80.939	186.49	66.152	5.4763	0.0098950
-52.000	0.0083807	653.66	0.0015299	4.9504	4.9512	31.099	87.599	122.99	1319.8	-0.48480	359.25	0.13935	0.021144	0.26671	3.7493	27.982	29.808	143.50	72.563	81.168	186.84	65.192	5.5006	0.0099676
-51.000	0.0089101	652.68	0.0015321	5.0735	5.0743	31.654	87.710	123.16	1314.2	-0.48310	354.72	0.13888	0.021019	0.28237	3.5414	28.053	29.887	143.35	72.779	81.398	187.19	64.252	5.5249	0.010041
-50.000	0.0094668	651.71	0.0015344	5.1967	5.1975	32.207	87.824	123.33	1308.7	-0.48138	350.28	0.13841	0.020894	0.29877	3.3470	28.124	29.965	143.20	72.997	81.630	187.53	63.332	5.5492	0.010114
-49.000	0.010052	650.73	0.0015367	5.3201	5.3210	32.759	87.938	123.50	1303.1	-0.47965	345.93	0.13793	0.020769	0.31593	3.1652	28.195	30.044	143.06	73.216	81.863	187.87	62.430	5.5734	0.010187
-48.000	0.010667	649.75	0.0015390	5.4437	5.4446	33.309	88.055	123.68	1297.6	-0.47789	341.65	0.13746	0.020644	0.33389	2.9950	28.266	30.123	142.92	73.436	82.098	188.21	61.547	5.5977	0.010261
-47.000	0.011312	648.77	0.0015414	5.5674	5.5684	33.858	88.173	123.85	1292.1	-0.47611	337.46	0.13698	0.020519	0.35265	2.8356	28.338	30.202	142.78	73.658	82.335	188.55	60.682	5.6219	0.010335
-46.000	0.011990	647.79	0.0015437	5.6913	5.6924	34.404	88.292	124.03	1286.5	-0.47432	333.35	0.13651	0.020395	0.37226	2.6863	28.409	30.281	142.65	73.880	82.573	188.88	59.835	5.6460	0.010410
-45.000	0.012700	646.81	0.0015460	5.8154	5.8166	34.949	88.413	124.21	1281.0	-0.47250	329.31	0.13603	0.020270	0.39275	2.5462	28.481	30.360	142.53	74.104	82.813	189.21	59.005	5.6702	0.010485
-44.000	0.013445	645.83	0.0015484	5.9397	5.9409	35.493	88.536	124.40	1275.5	-0.47067	325.35	0.13556	0.020146	0.41413	2.4147	28.553	30.440	142.40	74.329	83.055	189.54	58.191	5.6943	0.010560
-43.000	0.014225	644.84	0.0015508	6.0642	6.0654	36.035	88.660	124.58	1269.9	-0.46881	321.45	0.13509	0.020022	0.43643	2.2913	28.625	30.519	142.29	74.554	83.298	189.86	57.394	5.7185	0.010635
-42.000	0.015042	643.86	0.0015531	6.1888	6.1902	36.575	88.786	124.77	1264.4	-0.46693	317.63	0.13461	0.019898	0.45970	2.1753	28.697	30.599	142.17	74.782	83.543	190.18	56.613	5.7425	0.010711
-41.000	0.015897	642.87	0.0015555	6.3136	6.3151	37.114	88.913	124.95	1258.9	-0.46503	313.88	0.13414	0.019774	0.48395	2.0663	28.769	30.678	142.06	75.010	83.790	190.50	55.848	5.7666	0.010787
-40.000	0.016791	641.88	0.0015579	6.4387	6.4402	37.652	89.041	125.14	1253.4	-0.46311	310.19	0.13367	0.019650	0.50921	1.9638	28.841	30.758	141.95	75.239	84.038	190.81	55.098	5.7906	0.010863
-39.000	0.017727	640.89	0.0015603	6.5639	6.5655	38.187	89.172	125.34	1247.8	-0.46117	306.57	0.13320	0.019526	0.53552	1.8673	28.914	30.838	141.85	75.470	84.288	191.12	54.363	5.8147	0.010940
-38.000	0.018704	639.89	0.0015628	6.6893	6.6910	38.722	89.303	125.53	1242.3	-0.45921	303.01	0.13272	0.019403	0.56291	1.7765	28.986	30.918	141.75	75.702	84.540	191.43	53.642	5.8387	0.011017
-37.000	0.019724	638.90	0.0015652	6.8149	6.8167	39.255	89.437	125.73	1236.8	-0.45722	299.52	0.13225	0.019279	0.59140	1.6909	29.059	30.998	141.65	75.934	84.794	191.73	52.936	5.8626	0.011094
-36.000	0.020790	637.91	0.0015676	6.9406	6.9425	39.786	89.571	125.92	1231.3	-0.45522	296.08	0.13178	0.019156	0.62104	1.6102	29.132	31.078	141.56	76.169	85.050	192.03	52.243	5.8866	0.011172
-35.000	0.021902	636.91	0.0015701	7.0666	7.0686	40.317	89.707	126.12	1225.8	-0.45319	292.70	0.13131	0.019033	0.65184	1.5341	29.205	31.158	141.47	76.404	85.307	192.33	51.564	5.9105	0.011250
-34.000	0.023062	635.91	0.0015726	7.1928	7.1949	40.845	89.845	126.33	1220.3	-0.45114	289.38	0.13084	0.018910	0.68386	1.4623	29.279	31.239	141.38	76.640	85.566	192.62	50.898	5.9344	0.011328
-33.000	0.024271	634.91	0.0015750	7.3192	7.3214	41.373	89.984	126.53	1214.8	-0.44907	286.11	0.13037	0.018787	0.71711	1.3945	29.352	31.319	141.30	76.878	85.827	192.91	50.246	5.9583	0.011406
-32.000	0.025531	633.91	0.0015775	7.4458	7.4481	41.899	90.125	126.74	1209.3	-0.44697	282.90	0.12991	0.018664	0.75163	1.3304	29.425	31.400	141.22	77.117	86.090	193.20	49.606	5.9822	0.011485
-31.000	0.026843	632.90	0.0015800	7.5726	7.5750	42.423	90.266	126.94	1203.8	-0.44485	279.75	0.12944	0.018542	0.78746	1.2699	29.499	31.480	141.14	77.357	86.355	193.48	48.978	6.0061	0.011564
-30.000	0.028210	631.89	0.0015825	7.6996	7.7022	42.947	90.410	127.15	1198.4	-0.44271	276.64	0.12897	0.018419	0.82463	1.2127	29.573	31.561	141.07	77.598	86.621	193.76	48.362	6.0299	0.011644
-29.000	0.029632	630.89	0.0015851	7.8268	7.8295	43.469	90.554	127.37	1192.9	-0.44054	273.58	0.12850	0.018297	0.86318	1.1585	29.647	31.642	141.00	77.840	86.890	194.04	47.759	6.0537	0.011724
-28.000	0.031111	629.88	0.0015876	7.9542	7.9571	43.990	90.701	127.58	1187.4	-0.43836	270.57	0.12804	0.018175	0.90314	1.1072	29.721	31.723	140.93	78.084	87.160	194.31	47.166	6.0775	0.011804
-27.000	0.032649	628.87	0.0015902	8.0818	8.0848	44.509	90.848	127.79	1181.9	-0.43614	267.62	0.12757	0.018053	0.94455	1.0587	29.795	31.804	140.87	78.328	87.432	194.58	46.585	6.1013	0.011884
-26.000	0.034248	627.85	0.0015927	8.2097	8.2128	45.028	90.997	128.01	1176.4	-0.43391	264.70	0.12711	0.017931	0.98745	1.0127	29.869	31.885	140.81	78.574	87.707	194.84	46.016	6.1250	0.011965
-25.000	0.035909	626.84	0.0015953	8.3377	8.3410	45.545	91.147	128.23	1171.0	-0.43164	261.84	0.12664	0.017809	1.0319	0.96911	29.943	31.966	140.75	78.821	87.983	195.10	45.457	6.1487	0.012046
-24.000	0.037635	625.82	0.0015979	8.4660	8.4695	46.061	91.299	128.45	1165.5	-0.42936	259.02	0.12618	0.017688	1.0779	0.92777	30.018	32.047	140.69	79.069	88.261	195.35	44.908	6.1725	0.012128
-23.000	0.039426	624.80	0.0016005	8.5945	8.5981	46.575	91.451	128.68	1160.0	-0.42705	256.24	0.12572	0.017566	1.1254	0.88855	30.092	32.129	140.64	79.319	88.540	195.61	44.370	6.1962	0.012210
-22.000	0.041285	623.78	0.0016031	8.7232	8.7270	47.089	91.606	128.90	1154.6	-0.42471	253.50	0.12525	0.017445	1.1747	0.85132	30.167	32.210	140.59	79.569	88.822	195.85	43.842	6.2198	0.012292
-21.000	0.043213	622.76	0.0016058	8.8521	8.8561	47.601	91.761	129.13	1149.1	-0.42235	250.81	0.12479	0.017324	1.2255	0.81596	30.242	32.291	140.54	79.821	89.106	196.10	43.324	6.2435	0.012374
-20.000	0.045213	621.73	0.0016084	8.9813	8.9855	48.112	91.918	129.36	1143.7	-0.41996	248.16	0.12433	0.017203	1.2782	0.78237	30.317	32.373	140.50	80.073	89.392	196.34	42.816	6.2672	0.012457
-19.000	0.047285	620.70	0.0016111	9.1107	9.1151	48.623	92.076	129.59	1138.2	-0.41755	245.54	0.12387	0.017082	1.3325	0.75045	30.392	32.455	140.46	80.327	89.680	196.57	42.317	6.2908	0.012540
-18.000	0.049433	619.67	0.0016138	9.2403	9.2449	49.132	92.235	129.82	1132.8	-0.41511	242.97	0.12341	0.016961	1.3887	0.72010	30.467	32.536	140.42	80.582	89.969	196.80	41.827	6.3144	0.012624
-17.000	0.051658	618.64	0.0016164	9.3701	9.3750	49.640	92.396	130.06	1127.3	-0.41264	240.44	0.12295	0.016840	1.4467	0.69123	30.543	32.618	140.38	80.838	90.261	197.03	41.347	6.3381	0.012708
-16.000	0.053962	617.61	0.0016192	9.5002	9.5053	50.146	92.558	130.30	1121.9	-0.41014	237.94	0.12250	0.016720	1.5066	0.66375	30.618	32.700	140.35	81.096	90.555	197.25	40.875	6.3617	0.012792
-15.000	0.056346	616.57	0.0016219	9.6305	9.6358	50.652	92.721	130.54	1116.5	-0.40762	235.48	0.12204	0.016600	1.5684	0.63759	30.694	32.782	140.31	81.354	90.851	197.47	40.412	6.3852	0.012876
-14.000	0.058814	615.53	0.0016246	9.7611	9.7666	51.157	92.885	130.78	1111.0	-0.40507	233.05	0.12159	0.016480	1.6322	0.61268	30.770	32.864	140.28	81.613	91.149	197.69	39.958	6.4088	0.012961
-13.000	0.061366	614.49	0.0016274	9.8918	9.8976	51.661	93.051	131.02	1105.6	-0.40249	230.66	0.12113	0.016360	1.6980	0.58894	30.845	32.946	140.26	81.874	91.449	197.89	39.512	6.4324	0.013047
-12.000	0.064005	613.45	0.0016301	10.023	10.029	52.163	93.218	131.27	1100.1	-0.39988	228.30	0.12068	0.016240	1.7658	0.56631	30.921	33.028	140.23	82.136	91.751	198.10	39.074	6.4560	0.013132
-11.000	0.066733	612.40	0.0016329	10.154	10.160	52.665	93.385	131.51	1094.7	-0.39725	225.98	0.12022	0.016120	1.8358	0.54474	30.997	33.110	140.21	82.399	92.055	198.30	38.644	6.4795	0.013218
-10.000	0.069552	611.35	0.0016357	10.286	10.292	53.166	93.555	131.76	1089.3	-0.39458	223.69	0.11977	0.016001	1.9078	0.52415	31.073	33.192	140.19	82.663	92.361	198.50	38.222	6.5031	0.013305
-9.0000	0.072465	610.30	0.0016385	10.417	10.424	53.666	93.725	132.01	1083.9	-0.39188	221.43	0.11932	0.015881	1.9821	0.50451	31.150	33.275	140.17	82.928	92.669	198.69	37.808	6.5266	0.013391
-8.0000	0.075472	609.25	0.0016414	10.549	10.557	54.164	93.896	132.27	1078.5	-0.38916	219.20	0.11887	0.015762	2.0586	0.48577	31.226	33.357	140.16	83.194	92.980	198.88	37.401	6.5501	0.013478
-7.0000	0.078577	608.19	0.0016442	10.682	10.689	54.662	94.069	132.52	1073.0	-0.38640	217.00	0.11842	0.015643	2.1374	0.46786	31.303	33.439	140.14	83.461	93.292	199.06	37.002	6.5737	0.013566
-6.0000	0.081782	607.14	0.0016471	10.814	10.822	55.159	94.243	132.78	1067.6	-0.38361	214.84	0.11798	0.015524	2.2185	0.45076	31.379	33.522	140.13	83.729	93.607	199.23	36.609	6.5972	0.013654
-5.0000	0.085089	606.08	0.0016500	10.947	10.955	55.655	94.418	133.04	1062.2	-0.38078	212.70	0.11753	0.015406	2.3020	0.43441	31.456	33.604	140.12	83.999	93.924	199.41	36.224	6.6207	0.013742
-4.0000	0.088499	605.01	0.0016529	11.080	11.088	56.150	94.593	133.30	1056.8	-0.37793	210.59	0.11708	0.015287	2.3879	0.41878	31.533	33.687	140.11	84.269	94.243	199.58	35.846	6.6442	0.013831
-3.0000	0.092016	603.95	0.0016558	11.213	11.222	56.645	94.771	133.57	1051.4	-0.37504	208.51	0.11664	0.015169	2.4763	0.40383	31.610	33.769	140.11	84.540	94.564	199.74	35.475	6.6678	0.013920
-2.0000	0.095641	602.88	0.0016587	11.347	11.356	57.138	94.949	133.83	1046.0	-0.37212	206.46	0.11619	0.015050	2.5672	0.38953	31.687	33.852	140.10	84.813	94.888	199.90	35.110	6.6913	0.014009
-1.0000	0.099377	601.81	0.0016617	11.480	11.490	57.631	95.128	134.10	1040.6	-0.36917	204.43	0.11575	0.014932	2.6606	0.37585	31.764	33.935	140.10	85.086	95.213	200.05	34.752	6.7148	0.014099
0.0000	0.10323	600.73	0.0016646	11.614	11.624	58.122	95.308	134.37	1035.2	-0.36618	202.43	0.11531	0.014814	2.7567	0.36275	31.841	34.017	140.10	85.361	95.541	200.20	34.400	6.7383	0.014189
1.0000	0.10719	599.65	0.0016676	11.749	11.759	58.613	95.490	134.64	1029.8	-0.36315	200.46	0.11487	0.014696	2.8555	0.35020	31.918	34.100	140.10	85.637	95.871	200.34	34.055	6.7619	0.014280
